 vasp.5.4.4.18Apr17-6-g9f103f2a35 (build Feb 12 2020 19:11:22) complex          
  
 executed on             LinuxIFC date 2020.03.20  22:31:03
 running on   64 total cores
 distrk:  each k-point on   64 cores,    1 groups
 distr:  one band on NCORES_PER_BAND=   8 cores,    8 groups


--------------------------------------------------------------------------------------------------------


 INCAR:
 POTCAR:    PAW_PBE C 08Apr2002                   
 POTCAR:    PAW_PBE Si 05Jan2001                  
 POTCAR:    PAW_PBE C 08Apr2002                   
   VRHFIN =C: s2p2                                                              
   LEXCH  = PE                                                                  
   EATOM  =   147.1560 eV,   10.8157 Ry                                         
                                                                                
   TITEL  = PAW_PBE C 08Apr2002                                                 
   LULTRA =        F    use ultrasoft PP ?                                      
   IUNSCR =        1    unscreen: 0-lin 1-nonlin 2-no                           
   RPACOR =    1.200    partial core radius                                     
   POMASS =   12.011; ZVAL   =    4.000    mass and valenz                      
   RCORE  =    1.500    outmost cutoff radius                                   
   RWIGS  =    1.630; RWIGS  =    0.863    wigner-seitz radius (au A)           
   ENMAX  =  400.000; ENMIN  =  300.000 eV                                      
   ICORE  =        2    local potential                                         
   LCOR   =        T    correct aug charges                                     
   LPAW   =        T    paw PP                                                  
   EAUG   =  644.873                                                            
   DEXC   =    0.000                                                            
   RMAX   =    1.529    core radius for proj-oper                               
   RAUG   =    1.300    factor for augmentation sphere                          
   RDEP   =    1.501    radius for radial grids                                 
   RDEPT  =    1.300    core radius for aug-charge                              
                                                                                
   Atomic configuration                                                         
    4 entries                                                                   
     n  l   j            E        occ.                                          
     1  0  0.50      -273.3789   2.0000                                         
     2  0  0.50       -13.7508   2.0000                                         
     2  1  0.50        -5.2854   2.0000                                         
     3  2  1.50        -5.4423   0.0000                                         
   Description                                                                  
     l       E           TYP  RCUT    TYP  RCUT                                 
     0    -13.7508458     23  1.200                                             
     0     -8.2022199     23  1.200                                             
     1     -5.2854383     23  1.500                                             
     1     34.0145650     23  1.500                                             
     2     -5.4423304      7  1.500                                             
  local pseudopotential read in
  partial core-charges read in
  partial kinetic energy density read in
  atomic valenz-charges read in
  non local Contribution for L=           0  read in
    real space projection operators read in
  non local Contribution for L=           0  read in
    real space projection operators read in
  non local Contribution for L=           1  read in
    real space projection operators read in
  non local Contribution for L=           1  read in
    real space projection operators read in
    PAW grid and wavefunctions read in
 
   number of l-projection  operators is LMAX  =           4
   number of lm-projection operators is LMMAX =           8
 
 POTCAR:    PAW_PBE Si 05Jan2001                  
   VRHFIN =Si: s2p2                                                             
   LEXCH  = PE                                                                  
   EATOM  =   103.0669 eV,    7.5752 Ry                                         
                                                                                
   TITEL  = PAW_PBE Si 05Jan2001                                                
   LULTRA =        F    use ultrasoft PP ?                                      
   IUNSCR =        1    unscreen: 0-lin 1-nonlin 2-no                           
   RPACOR =    1.500    partial core radius                                     
   POMASS =   28.085; ZVAL   =    4.000    mass and valenz                      
   RCORE  =    1.900    outmost cutoff radius                                   
   RWIGS  =    2.480; RWIGS  =    1.312    wigner-seitz radius (au A)           
   ENMAX  =  245.345; ENMIN  =  184.009 eV                                      
   ICORE  =        2    local potential                                         
   LCOR   =        T    correct aug charges                                     
   LPAW   =        T    paw PP                                                  
   EAUG   =  322.069                                                            
   DEXC   =    0.000                                                            
   RMAX   =    1.950    core radius for proj-oper                               
   RAUG   =    1.300    factor for augmentation sphere                          
   RDEP   =    1.993    radius for radial grids                                 
   RDEPT  =    1.837    core radius for aug-charge                              
                                                                                
   Atomic configuration                                                         
    6 entries                                                                   
     n  l   j            E        occ.                                          
     1  0  0.50     -1785.8828   2.0000                                         
     2  0  0.50      -139.4969   2.0000                                         
     2  1  1.50       -95.5546   6.0000                                         
     3  0  0.50       -10.8127   2.0000                                         
     3  1  0.50        -4.0811   2.0000                                         
     3  2  1.50        -4.0817   0.0000                                         
   Description                                                                  
     l       E           TYP  RCUT    TYP  RCUT                                 
     0    -10.8127223     23  1.900                                             
     0     -7.6451159     23  1.900                                             
     1     -4.0811372     23  1.900                                             
     1      2.4879257     23  1.900                                             
     2     -4.0817478      7  1.900                                             
  local pseudopotential read in
  partial core-charges read in
  partial kinetic energy density read in
  atomic valenz-charges read in
  non local Contribution for L=           0  read in
    real space projection operators read in
  non local Contribution for L=           0  read in
    real space projection operators read in
  non local Contribution for L=           1  read in
    real space projection operators read in
  non local Contribution for L=           1  read in
    real space projection operators read in
    PAW grid and wavefunctions read in
 
   number of l-projection  operators is LMAX  =           4
   number of lm-projection operators is LMMAX =           8
 

 ----------------------------------------------------------------------------- 
|                                                                             |
|  ADVICE TO THIS USER RUNNING 'VASP/VAMP'   (HEAR YOUR MASTER'S VOICE ...):  |
|                                                                             |
|      You have a (more or less) 'large supercell' and for larger cells       |
|      it might be more efficient to use real space projection opertators     |
|      So try LREAL= Auto  in the INCAR   file.                               |
|      Mind:          For very  accurate calculation you might also keep the  |
|      reciprocal projection scheme          (i.e. LREAL=.FALSE.)             |
|                                                                             |
 ----------------------------------------------------------------------------- 

  PAW_PBE C 08Apr2002                   :
 energy of atom  1       EATOM= -147.1560
 kinetic energy error for atom=    0.0288 (will be added to EATOM!!)
  PAW_PBE Si 05Jan2001                  :
 energy of atom  2       EATOM= -103.0669
 kinetic energy error for atom=    0.0012 (will be added to EATOM!!)
 
 
 POSCAR:  C Si                                   
  positions in direct lattice
  velocities in cartesian coordinates
 exchange correlation table for  LEXCH =        8
   RHO(1)=    0.500       N(1)  =     2000
   RHO(2)=  100.500       N(2)  =     4000
 


--------------------------------------------------------------------------------------------------------


 ion  position               nearest neighbor table
   1  0.125  0.125  0.125-  33 1.89  34 1.89  35 1.89  36 1.89
   2  0.125  0.375  0.375-  34 1.89  40 1.89  43 1.89  45 1.89
   3  0.375  0.125  0.375-  35 1.89  40 1.89  50 1.89  53 1.89
   4  0.375  0.375  0.125-  36 1.89  43 1.89  50 1.89  57 1.89
   5  0.125  0.125  0.625-  37 1.89  38 1.89  39 1.89  40 1.89
   6  0.125  0.375  0.875-  36 1.89  38 1.89  41 1.89  47 1.89
   7  0.375  0.125  0.875-  36 1.89  39 1.89  49 1.89  54 1.89
   8  0.375  0.375  0.625-  40 1.89  47 1.89  54 1.89  61 1.89
   9  0.125  0.625  0.125-  41 1.89  42 1.89  43 1.89  44 1.89
  10  0.125  0.875  0.375-  35 1.89  37 1.89  42 1.89  48 1.89
  11  0.375  0.625  0.375-  43 1.89  48 1.89  58 1.89  61 1.89
  12  0.375  0.875  0.125-  35 1.89  44 1.89  49 1.89  58 1.89
  13  0.125  0.625  0.625-  45 1.89  46 1.89  47 1.89  48 1.89
  14  0.125  0.875  0.875-  33 1.89  39 1.89  44 1.89  46 1.89
  15  0.375  0.625  0.875-  44 1.89  47 1.89  57 1.89  62 1.89
  16  0.375  0.875  0.625-  39 1.89  48 1.89  53 1.89  62 1.89
  17  0.625  0.125  0.125-  49 1.89  50 1.89  51 1.89  52 1.89
  18  0.625  0.375  0.375-  50 1.89  56 1.89  59 1.89  61 1.89
  19  0.875  0.125  0.375-  34 1.89  37 1.89  51 1.89  56 1.89
  20  0.875  0.375  0.125-  34 1.89  41 1.89  52 1.89  59 1.89
  21  0.625  0.125  0.625-  53 1.89  54 1.89  55 1.89  56 1.89
  22  0.625  0.375  0.875-  52 1.89  54 1.89  57 1.89  63 1.89
  23  0.875  0.125  0.875-  33 1.89  38 1.89  52 1.89  55 1.89
  24  0.875  0.375  0.625-  38 1.89  45 1.89  56 1.89  63 1.89
  25  0.625  0.625  0.125-  57 1.89  58 1.89  59 1.89  60 1.89
  26  0.625  0.875  0.375-  51 1.89  53 1.89  58 1.89  64 1.89
  27  0.875  0.625  0.375-  42 1.89  45 1.89  59 1.89  64 1.89
  28  0.875  0.875  0.125-  33 1.89  42 1.89  51 1.89  60 1.89
  29  0.625  0.625  0.625-  61 1.89  62 1.89  63 1.89  64 1.89
  30  0.625  0.875  0.875-  49 1.89  55 1.89  60 1.89  62 1.89
  31  0.875  0.625  0.875-  41 1.89  46 1.89  60 1.89  63 1.89
  32  0.875  0.875  0.625-  37 1.89  46 1.89  55 1.89  64 1.89
  33  0.000  0.000  0.000-   1 1.89  14 1.89  23 1.89  28 1.89  34 3.09  35 3.09  36 3.09  38 3.09
                            39 3.09  42 3.09  44 3.09  46 3.09  51 3.09  52 3.09  55 3.09  60 3.09
  34  0.000  0.250  0.250-   1 1.89   2 1.89  19 1.89  20 1.89  33 3.09  35 3.09  36 3.09  37 3.09
                            40 3.09  41 3.09  43 3.09  45 3.09  51 3.09  52 3.09  56 3.09  59 3.09
  35  0.250  0.000  0.250-   1 1.89   3 1.89  10 1.89  12 1.89  33 3.09  34 3.09  36 3.09  37 3.09
                            40 3.09  42 3.09  44 3.09  48 3.09  49 3.09  50 3.09  53 3.09  58 3.09
  36  0.250  0.250  0.000-   1 1.89   4 1.89   6 1.89   7 1.89  33 3.09  34 3.09  35 3.09  38 3.09
                            39 3.09  41 3.09  43 3.09  47 3.09  49 3.09  50 3.09  54 3.09  57 3.09
  37  0.000  0.000  0.500-   5 1.89  10 1.89  19 1.89  32 1.89  34 3.09  35 3.09  38 3.09  39 3.09
                            40 3.09  42 3.09  46 3.09  48 3.09  51 3.09  55 3.09  56 3.09  64 3.09
  38  0.000  0.250  0.750-   5 1.89   6 1.89  23 1.89  24 1.89  33 3.09  36 3.09  37 3.09  39 3.09
                            40 3.09  41 3.09  45 3.09  47 3.09  52 3.09  55 3.09  56 3.09  63 3.09
  39  0.250  0.000  0.750-   5 1.89   7 1.89  14 1.89  16 1.89  33 3.09  36 3.09  37 3.09  38 3.09
                            40 3.09  44 3.09  46 3.09  48 3.09  49 3.09  53 3.09  54 3.09  62 3.09
  40  0.250  0.250  0.500-   2 1.89   3 1.89   5 1.89   8 1.89  34 3.09  35 3.09  37 3.09  38 3.09
                            39 3.09  43 3.09  45 3.09  47 3.09  50 3.09  53 3.09  54 3.09  61 3.09
  41  0.000  0.500  0.000-   6 1.89   9 1.89  20 1.89  31 1.89  34 3.09  36 3.09  38 3.09  42 3.09
                            43 3.09  44 3.09  46 3.09  47 3.09  52 3.09  59 3.09  60 3.09  63 3.09
  42  0.000  0.750  0.250-   9 1.89  10 1.89  27 1.89  28 1.89  33 3.09  35 3.09  37 3.09  41 3.09
                            43 3.09  44 3.09  45 3.09  48 3.09  51 3.09  59 3.09  60 3.09  64 3.09
  43  0.250  0.500  0.250-   2 1.89   4 1.89   9 1.89  11 1.89  34 3.09  36 3.09  40 3.09  41 3.09
                            42 3.09  44 3.09  45 3.09  48 3.09  50 3.09  57 3.09  58 3.09  61 3.09
  44  0.250  0.750  0.000-   9 1.89  12 1.89  14 1.89  15 1.89  33 3.09  35 3.09  39 3.09  41 3.09
                            42 3.09  43 3.09  46 3.09  47 3.09  49 3.09  57 3.09  58 3.09  62 3.09
  45  0.000  0.500  0.500-   2 1.89  13 1.89  24 1.89  27 1.89  34 3.09  38 3.09  40 3.09  42 3.09
                            43 3.09  46 3.09  47 3.09  48 3.09  56 3.09  59 3.09  63 3.09  64 3.09
  46  0.000  0.750  0.750-  13 1.89  14 1.89  31 1.89  32 1.89  33 3.09  37 3.09  39 3.09  41 3.09
                            44 3.09  45 3.09  47 3.09  48 3.09  55 3.09  60 3.09  63 3.09  64 3.09
  47  0.250  0.500  0.750-   6 1.89   8 1.89  13 1.89  15 1.89  36 3.09  38 3.09  40 3.09  41 3.09
                            44 3.09  45 3.09  46 3.09  48 3.09  54 3.09  57 3.09  61 3.09  62 3.09
  48  0.250  0.750  0.500-  10 1.89  11 1.89  13 1.89  16 1.89  35 3.09  37 3.09  39 3.09  42 3.09
                            43 3.09  45 3.09  46 3.09  47 3.09  53 3.09  58 3.09  61 3.09  62 3.09
  49  0.500  0.000  0.000-   7 1.89  12 1.89  17 1.89  30 1.89  35 3.09  36 3.09  39 3.09  44 3.09
                            50 3.09  51 3.09  52 3.09  54 3.09  55 3.09  58 3.09  60 3.09  62 3.09
  50  0.500  0.250  0.250-   3 1.89   4 1.89  17 1.89  18 1.89  35 3.09  36 3.09  40 3.09  43 3.09
                            49 3.09  51 3.09  52 3.09  53 3.09  56 3.09  57 3.09  59 3.09  61 3.09
  51  0.750  0.000  0.250-  17 1.89  19 1.89  26 1.89  28 1.89  33 3.09  34 3.09  37 3.09  42 3.09
                            49 3.09  50 3.09  52 3.09  53 3.09  56 3.09  58 3.09  60 3.09  64 3.09
  52  0.750  0.250  0.000-  17 1.89  20 1.89  22 1.89  23 1.89  33 3.09  34 3.09  38 3.09  41 3.09
                            49 3.09  50 3.09  51 3.09  54 3.09  55 3.09  57 3.09  59 3.09  63 3.09
  53  0.500  0.000  0.500-   3 1.89  16 1.89  21 1.89  26 1.89  35 3.09  39 3.09  40 3.09  48 3.09
                            50 3.09  51 3.09  54 3.09  55 3.09  56 3.09  58 3.09  62 3.09  64 3.09
  54  0.500  0.250  0.750-   7 1.89   8 1.89  21 1.89  22 1.89  36 3.09  39 3.09  40 3.09  47 3.09
                            49 3.09  52 3.09  53 3.09  55 3.09  56 3.09  57 3.09  61 3.09  63 3.09
  55  0.750  0.000  0.750-  21 1.89  23 1.89  30 1.89  32 1.89  33 3.09  37 3.09  38 3.09  46 3.09
                            49 3.09  52 3.09  53 3.09  54 3.09  56 3.09  60 3.09  62 3.09  64 3.09
  56  0.750  0.250  0.500-  18 1.89  19 1.89  21 1.89  24 1.89  34 3.09  37 3.09  38 3.09  45 3.09
                            50 3.09  51 3.09  53 3.09  54 3.09  55 3.09  59 3.09  61 3.09  63 3.09
  57  0.500  0.500  0.000-   4 1.89  15 1.89  22 1.89  25 1.89  36 3.09  43 3.09  44 3.09  47 3.09
                            50 3.09  52 3.09  54 3.09  58 3.09  59 3.09  60 3.09  62 3.09  63 3.09
  58  0.500  0.750  0.250-  11 1.89  12 1.89  25 1.89  26 1.89  35 3.09  43 3.09  44 3.09  48 3.09
                            49 3.09  51 3.09  53 3.09  57 3.09  59 3.09  60 3.09  61 3.09  64 3.09
  59  0.750  0.500  0.250-  18 1.89  20 1.89  25 1.89  27 1.89  34 3.09  41 3.09  42 3.09  45 3.09
                            50 3.09  52 3.09  56 3.09  57 3.09  58 3.09  60 3.09  61 3.09  64 3.09
  60  0.750  0.750  0.000-  25 1.89  28 1.89  30 1.89  31 1.89  33 3.09  41 3.09  42 3.09  46 3.09
                            49 3.09  51 3.09  55 3.09  57 3.09  58 3.09  59 3.09  62 3.09  63 3.09
  61  0.500  0.500  0.500-   8 1.89  11 1.89  18 1.89  29 1.89  40 3.09  43 3.09  47 3.09  48 3.09
                            50 3.09  54 3.09  56 3.09  58 3.09  59 3.09  62 3.09  63 3.09  64 3.09
  62  0.500  0.750  0.750-  15 1.89  16 1.89  29 1.89  30 1.89  39 3.09  44 3.09  47 3.09  48 3.09
                            49 3.09  53 3.09  55 3.09  57 3.09  60 3.09  61 3.09  63 3.09  64 3.09
  63  0.750  0.500  0.750-  22 1.89  24 1.89  29 1.89  31 1.89  38 3.09  41 3.09  45 3.09  46 3.09
                            52 3.09  54 3.09  56 3.09  57 3.09  60 3.09  61 3.09  62 3.09  64 3.09
  64  0.750  0.750  0.500-  26 1.89  27 1.89  29 1.89  32 1.89  37 3.09  42 3.09  45 3.09  46 3.09
                            51 3.09  53 3.09  55 3.09  58 3.09  59 3.09  61 3.09  62 3.09  63 3.09
 

IMPORTANT INFORMATION: All symmetrisations will be switched off!
NOSYMM: (Re-)initialisation of all symmetry stuff for point group C_1.

 
 
 KPOINTS: KPOINTS created by Atomic Simulation Env

Automatic generation of k-mesh.
Space group operators:
 irot       det(A)        alpha          n_x          n_y          n_z        tau_x        tau_y        tau_z
    1     1.000000     0.000000     1.000000     0.000000     0.000000     0.000000     0.000000     0.000000
 
 Subroutine IBZKPT returns following result:
 ===========================================
 
 Found     14 irreducible k-points:
 
 Following reciprocal coordinates:
            Coordinates               Weight
  0.000000  0.000000  0.000000      1.000000
  0.333333  0.000000  0.000000      2.000000
  0.000000  0.333333  0.000000      2.000000
  0.333333  0.333333  0.000000      2.000000
 -0.333333  0.333333  0.000000      2.000000
  0.000000  0.000000  0.333333      2.000000
  0.333333  0.000000  0.333333      2.000000
 -0.333333  0.000000  0.333333      2.000000
  0.000000  0.333333  0.333333      2.000000
  0.333333  0.333333  0.333333      2.000000
 -0.333333  0.333333  0.333333      2.000000
  0.000000 -0.333333  0.333333      2.000000
  0.333333 -0.333333  0.333333      2.000000
 -0.333333 -0.333333  0.333333      2.000000
 
 Following cartesian coordinates:
            Coordinates               Weight
  0.000000  0.000000  0.000000      1.000000
  0.038124  0.000000  0.000000      2.000000
  0.000000  0.038124  0.000000      2.000000
  0.038124  0.038124  0.000000      2.000000
 -0.038124  0.038124  0.000000      2.000000
  0.000000  0.000000  0.038124      2.000000
  0.038124  0.000000  0.038124      2.000000
 -0.038124  0.000000  0.038124      2.000000
  0.000000  0.038124  0.038124      2.000000
  0.038124  0.038124  0.038124      2.000000
 -0.038124  0.038124  0.038124      2.000000
  0.000000 -0.038124  0.038124      2.000000
  0.038124 -0.038124  0.038124      2.000000
 -0.038124 -0.038124  0.038124      2.000000
 


--------------------------------------------------------------------------------------------------------




 Dimension of arrays:
   k-points           NKPTS =     14   k-points in BZ     NKDIM =     14   number of bands    NBANDS=    168
   number of dos      NEDOS =    301   number of ions     NIONS =     64
   non local maximal  LDIM  =      4   non local SUM 2l+1 LMDIM =      8
   total plane-waves  NPLWV = 110592
   max r-space proj   IRMAX =      1   max aug-charges    IRDMAX=   5731
   dimension x,y,z NGX =    48 NGY =   48 NGZ =   48
   dimension x,y,z NGXF=    96 NGYF=   96 NGZF=   96
   support grid    NGXF=    96 NGYF=   96 NGZF=   96
   ions per type =              32  32
   NGX,Y,Z   is equivalent  to a cutoff of   9.13,  9.13,  9.13 a.u.
   NGXF,Y,Z  is equivalent  to a cutoff of  18.25, 18.25, 18.25 a.u.

 SYSTEM =  unknown system                          
 POSCAR =   C Si                                   

 Startparameter for this run:
   NWRITE =      2    write-flag & timer
   PREC   = normal    normal or accurate (medium, high low for compatibility)
   ISTART =      0    job   : 0-new  1-cont  2-samecut
   ICHARG =      2    charge: 1-file 2-atom 10-const
   ISPIN  =      1    spin polarized calculation?
   LNONCOLLINEAR =      F non collinear calculations
   LSORBIT =      F    spin-orbit coupling
   INIWAV =      1    electr: 0-lowe 1-rand  2-diag
   LASPH  =      F    aspherical Exc in radial PAW
   METAGGA=      F    non-selfconsistent MetaGGA calc.

 Electronic Relaxation 1
   ENCUT  =  400.0 eV  29.40 Ry    5.42 a.u.  14.26 14.26 14.26*2*pi/ulx,y,z
   ENINI  =  400.0     initial cutoff
   ENAUG  =  644.9 eV  augmentation charge cutoff
   NELM   =     60;   NELMIN=  2; NELMDL= -5     # of ELM steps 
   EDIFF  = 0.1E-07   stopping-criterion for ELM
   LREAL  =      F    real-space projection
   NLSPLINE    = F    spline interpolate recip. space projectors
   LCOMPAT=      F    compatible to vasp.4.4
   GGA_COMPAT  = T    GGA compatible to vasp.4.4-vasp.4.6
   LMAXPAW     = -100 max onsite density
   LMAXMIX     =    2 max onsite mixed and CHGCAR
   VOSKOWN=      0    Vosko Wilk Nusair interpolation
   ROPT   =    0.00000   0.00000
 Ionic relaxation
   EDIFFG = 0.1E-06   stopping-criterion for IOM
   NSW    =      0    number of steps for IOM
   NBLOCK =      1;   KBLOCK =      1    inner block; outer block 
   IBRION =     -1    ionic relax: 0-MD 1-quasi-New 2-CG
   NFREE  =      0    steps in history (QN), initial steepest desc. (CG)
   ISIF   =      3    stress and relaxation
   IWAVPR =     10    prediction:  0-non 1-charg 2-wave 3-comb
   ISYM   =      0    0-nonsym 1-usesym 2-fastsym
   LCORR  =      T    Harris-Foulkes like correction to forces

   POTIM  = 0.5000    time-step for ionic-motion
   TEIN   =    0.0    initial temperature
   TEBEG  =    0.0;   TEEND  =   0.0 temperature during run
   SMASS  =  -3.00    Nose mass-parameter (am)
   estimated Nose-frequenzy (Omega)   =  0.10E-29 period in steps =****** mass=  -0.175E-26a.u.
   SCALEE = 1.0000    scale energy and forces
   NPACO  =    256;   APACO  = 16.0  distance and # of slots for P.C.
   PSTRESS=    0.0 pullay stress

  Mass of Ions in am
   POMASS =  12.01 28.09
  Ionic Valenz
   ZVAL   =   4.00  4.00
  Atomic Wigner-Seitz radii
   RWIGS  =  -1.00 -1.00
  virtual crystal weights 
   VCA    =   1.00  1.00
   NELECT =     256.0000    total number of electrons
   NUPDOWN=      -1.0000    fix difference up-down

 DOS related values:
   EMIN   =  10.00;   EMAX   =-10.00  energy-range for DOS
   EFERMI =   0.00
   ISMEAR =     1;   SIGMA  =   0.20  broadening in eV -4-tet -1-fermi 0-gaus

 Electronic relaxation 2 (details)
   IALGO  =     38    algorithm
   LDIAG  =      T    sub-space diagonalisation (order eigenvalues)
   LSUBROT=      F    optimize rotation matrix (better conditioning)
   TURBO    =      0    0=normal 1=particle mesh
   IRESTART =      0    0=no restart 2=restart with 2 vectors
   NREBOOT  =      0    no. of reboots
   NMIN     =      0    reboot dimension
   EREF     =   0.00    reference energy to select bands
   IMIX   =      4    mixing-type and parameters
     AMIX     =   0.40;   BMIX     =  1.00
     AMIX_MAG =   1.60;   BMIX_MAG =  1.00
     AMIN     =   0.10
     WC   =   100.;   INIMIX=   1;  MIXPRE=   1;  MAXMIX= -45

 Intra band minimization:
   WEIMIN = 0.0000     energy-eigenvalue tresh-hold
   EBREAK =  0.15E-10  absolut break condition
   DEPER  =   0.30     relativ break condition  

   TIME   =   0.40     timestep for ELM

  volume/ion in A,a.u.               =      10.44        70.48
  Fermi-wavevector in a.u.,A,eV,Ry     =   1.188900  2.246695 19.231607  1.413483
  Thomas-Fermi vector in A             =   2.325019
 
 Write flags
   LWAVE        =      F    write WAVECAR
   LDOWNSAMPLE  =      F    k-point downsampling of WAVECAR
   LCHARG       =      F    write CHGCAR
   LVTOT        =      F    write LOCPOT, total local potential
   LVHAR        =      F    write LOCPOT, Hartree potential only
   LELF         =      F    write electronic localiz. function (ELF)
   LORBIT       =      0    0 simple, 1 ext, 2 COOP (PROOUT), +10 PAW based schemes


 Dipole corrections
   LMONO  =      F    monopole corrections only (constant potential shift)
   LDIPOL =      F    correct potential (dipole corrections)
   IDIPOL =      0    1-x, 2-y, 3-z, 4-all directions 
   EPSILON=  1.0000000 bulk dielectric constant

 Exchange correlation treatment:
   GGA     =    PE    GGA type
   LEXCH   =     8    internal setting for exchange type
   VOSKOWN=      0    Vosko Wilk Nusair interpolation
   LHFCALC =     F    Hartree Fock is set to
   LHFONE  =     F    Hartree Fock one center treatment
   AEXX    =    0.0000 exact exchange contribution

 Linear response parameters
   LEPSILON=     F    determine dielectric tensor
   LRPA    =     F    only Hartree local field effects (RPA)
   LNABLA  =     F    use nabla operator in PAW spheres
   LVEL    =     F    velocity operator in full k-point grid
   LINTERFAST=   F  fast interpolation
   KINTER  =     0    interpolate to denser k-point grid
   CSHIFT  =0.1000    complex shift for real part using Kramers Kronig
   OMEGAMAX=  -1.0    maximum frequency
   DEG_THRESHOLD= 0.2000000E-02 threshold for treating states as degnerate
   RTIME   =   -0.100 relaxation time in fs
  (WPLASMAI=    0.000 imaginary part of plasma frequency in eV, 0.658/RTIME)
   DFIELD  = 0.0000000 0.0000000 0.0000000 field for delta impulse in time
 
 Orbital magnetization related:
   ORBITALMAG=     F  switch on orbital magnetization
   LCHIMAG   =     F  perturbation theory with respect to B field
   DQ        =  0.001000  dq finite difference perturbation B field
   LLRAUG    =     F  two centre corrections for induced B field



--------------------------------------------------------------------------------------------------------


 Static calculation
 charge density and potential will be updated during run
 non-spin polarized calculation
 Variant of blocked Davidson
 Davidson routine will perform the subspace rotation
 perform sub-space diagonalisation
    after iterative eigenvector-optimisation
 modified Broyden-mixing scheme, WC =      100.0
 initial mixing is a Kerker type mixing with AMIX =  0.4000 and BMIX =      1.0000
 Hartree-type preconditioning will be used
 using additional bands           40
 reciprocal scheme for non local part
 use partial core corrections
 calculate Harris-corrections to forces 
   (improved forces if not selfconsistent)
 use gradient corrections 
 use of overlap-Matrix (Vanderbilt PP)
 Methfessel and Paxton  Order N= 1 SIGMA  =   0.20


--------------------------------------------------------------------------------------------------------


  energy-cutoff  :      400.00
  volume of cell :      668.39
      direct lattice vectors                 reciprocal lattice vectors
     8.743315580  0.000000000  0.000000000     0.114373088  0.000000000  0.000000000
     0.000000000  8.743315580  0.000000000     0.000000000  0.114373088  0.000000000
     0.000000000  0.000000000  8.743315580     0.000000000  0.000000000  0.114373088

  length of vectors
     8.743315580  8.743315580  8.743315580     0.114373088  0.114373088  0.114373088


 
 k-points in units of 2pi/SCALE and weight: KPOINTS created by Atomic Simulation Env
   0.00000000  0.00000000  0.00000000       0.037
   0.03812436  0.00000000  0.00000000       0.074
   0.00000000  0.03812436  0.00000000       0.074
   0.03812436  0.03812436  0.00000000       0.074
  -0.03812436  0.03812436  0.00000000       0.074
   0.00000000  0.00000000  0.03812436       0.074
   0.03812436  0.00000000  0.03812436       0.074
  -0.03812436  0.00000000  0.03812436       0.074
   0.00000000  0.03812436  0.03812436       0.074
   0.03812436  0.03812436  0.03812436       0.074
  -0.03812436  0.03812436  0.03812436       0.074
   0.00000000 -0.03812436  0.03812436       0.074
   0.03812436 -0.03812436  0.03812436       0.074
  -0.03812436 -0.03812436  0.03812436       0.074
 
 k-points in reciprocal lattice and weights: KPOINTS created by Atomic Simulation Env
   0.00000000  0.00000000  0.00000000       0.037
   0.33333333  0.00000000  0.00000000       0.074
   0.00000000  0.33333333  0.00000000       0.074
   0.33333333  0.33333333  0.00000000       0.074
  -0.33333333  0.33333333  0.00000000       0.074
   0.00000000  0.00000000  0.33333333       0.074
   0.33333333  0.00000000  0.33333333       0.074
  -0.33333333  0.00000000  0.33333333       0.074
   0.00000000  0.33333333  0.33333333       0.074
   0.33333333  0.33333333  0.33333333       0.074
  -0.33333333  0.33333333  0.33333333       0.074
   0.00000000 -0.33333333  0.33333333       0.074
   0.33333333 -0.33333333  0.33333333       0.074
  -0.33333333 -0.33333333  0.33333333       0.074
 
 position of ions in fractional coordinates (direct lattice) 
   0.12500000  0.12500000  0.12500000
   0.12500000  0.37500000  0.37500000
   0.37500000  0.12500000  0.37500000
   0.37500000  0.37500000  0.12500000
   0.12500000  0.12500000  0.62500000
   0.12500000  0.37500000  0.87500000
   0.37500000  0.12500000  0.87500000
   0.37500000  0.37500000  0.62500000
   0.12500000  0.62500000  0.12500000
   0.12500000  0.87500000  0.37500000
   0.37500000  0.62500000  0.37500000
   0.37500000  0.87500000  0.12500000
   0.12500000  0.62500000  0.62500000
   0.12500000  0.87500000  0.87500000
   0.37500000  0.62500000  0.87500000
   0.37500000  0.87500000  0.62500000
   0.62500000  0.12500000  0.12500000
   0.62500000  0.37500000  0.37500000
   0.87500000  0.12500000  0.37500000
   0.87500000  0.37500000  0.12500000
   0.62500000  0.12500000  0.62500000
   0.62500000  0.37500000  0.87500000
   0.87500000  0.12500000  0.87500000
   0.87500000  0.37500000  0.62500000
   0.62500000  0.62500000  0.12500000
   0.62500000  0.87500000  0.37500000
   0.87500000  0.62500000  0.37500000
   0.87500000  0.87500000  0.12500000
   0.62500000  0.62500000  0.62500000
   0.62500000  0.87500000  0.87500000
   0.87500000  0.62500000  0.87500000
   0.87500000  0.87500000  0.62500000
   0.00000000  0.00000000  0.00000000
   0.00000000  0.25000000  0.25000000
   0.25000000  0.00000000  0.25000000
   0.25000000  0.25000000  0.00000000
   0.00000000  0.00000000  0.50000000
   0.00000000  0.25000000  0.75000000
   0.25000000  0.00000000  0.75000000
   0.25000000  0.25000000  0.50000000
   0.00000000  0.50000000  0.00000000
   0.00000000  0.75000000  0.25000000
   0.25000000  0.50000000  0.25000000
   0.25000000  0.75000000  0.00000000
   0.00000000  0.50000000  0.50000000
   0.00000000  0.75000000  0.75000000
   0.25000000  0.50000000  0.75000000
   0.25000000  0.75000000  0.50000000
   0.50000000  0.00000000  0.00000000
   0.50000000  0.25000000  0.25000000
   0.75000000  0.00000000  0.25000000
   0.75000000  0.25000000  0.00000000
   0.50000000  0.00000000  0.50000000
   0.50000000  0.25000000  0.75000000
   0.75000000  0.00000000  0.75000000
   0.75000000  0.25000000  0.50000000
   0.50000000  0.50000000  0.00000000
   0.50000000  0.75000000  0.25000000
   0.75000000  0.50000000  0.25000000
   0.75000000  0.75000000  0.00000000
   0.50000000  0.50000000  0.50000000
   0.50000000  0.75000000  0.75000000
   0.75000000  0.50000000  0.75000000
   0.75000000  0.75000000  0.50000000
 
 position of ions in cartesian coordinates  (Angst):
   1.09291445  1.09291445  1.09291445
   1.09291445  3.27874334  3.27874334
   3.27874334  1.09291445  3.27874334
   3.27874334  3.27874334  1.09291445
   1.09291445  1.09291445  5.46457224
   1.09291445  3.27874334  7.65040113
   3.27874334  1.09291445  7.65040113
   3.27874334  3.27874334  5.46457224
   1.09291445  5.46457224  1.09291445
   1.09291445  7.65040113  3.27874334
   3.27874334  5.46457224  3.27874334
   3.27874334  7.65040113  1.09291445
   1.09291445  5.46457224  5.46457224
   1.09291445  7.65040113  7.65040113
   3.27874334  5.46457224  7.65040113
   3.27874334  7.65040113  5.46457224
   5.46457224  1.09291445  1.09291445
   5.46457224  3.27874334  3.27874334
   7.65040113  1.09291445  3.27874334
   7.65040113  3.27874334  1.09291445
   5.46457224  1.09291445  5.46457224
   5.46457224  3.27874334  7.65040113
   7.65040113  1.09291445  7.65040113
   7.65040113  3.27874334  5.46457224
   5.46457224  5.46457224  1.09291445
   5.46457224  7.65040113  3.27874334
   7.65040113  5.46457224  3.27874334
   7.65040113  7.65040113  1.09291445
   5.46457224  5.46457224  5.46457224
   5.46457224  7.65040113  7.65040113
   7.65040113  5.46457224  7.65040113
   7.65040113  7.65040113  5.46457224
   0.00000000  0.00000000  0.00000000
   0.00000000  2.18582890  2.18582890
   2.18582890  0.00000000  2.18582890
   2.18582890  2.18582890  0.00000000
   0.00000000  0.00000000  4.37165779
   0.00000000  2.18582890  6.55748669
   2.18582890  0.00000000  6.55748669
   2.18582890  2.18582890  4.37165779
   0.00000000  4.37165779  0.00000000
   0.00000000  6.55748669  2.18582890
   2.18582890  4.37165779  2.18582890
   2.18582890  6.55748669  0.00000000
   0.00000000  4.37165779  4.37165779
   0.00000000  6.55748669  6.55748669
   2.18582890  4.37165779  6.55748669
   2.18582890  6.55748669  4.37165779
   4.37165779  0.00000000  0.00000000
   4.37165779  2.18582890  2.18582890
   6.55748669  0.00000000  2.18582890
   6.55748669  2.18582890  0.00000000
   4.37165779  0.00000000  4.37165779
   4.37165779  2.18582890  6.55748669
   6.55748669  0.00000000  6.55748669
   6.55748669  2.18582890  4.37165779
   4.37165779  4.37165779  0.00000000
   4.37165779  6.55748669  2.18582890
   6.55748669  4.37165779  2.18582890
   6.55748669  6.55748669  0.00000000
   4.37165779  4.37165779  4.37165779
   4.37165779  6.55748669  6.55748669
   6.55748669  4.37165779  6.55748669
   6.55748669  6.55748669  4.37165779
 


--------------------------------------------------------------------------------------------------------


 k-point  1 :   0.0000 0.0000 0.0000  plane waves:   12149
 k-point  2 :   0.3333 0.0000 0.0000  plane waves:   12148
 k-point  3 :   0.0000 0.3333 0.0000  plane waves:   12148
 k-point  4 :   0.3333 0.3333 0.0000  plane waves:   12162
 k-point  5 :  -0.3333 0.3333 0.0000  plane waves:   12162
 k-point  6 :   0.0000 0.0000 0.3333  plane waves:   12148
 k-point  7 :   0.3333 0.0000 0.3333  plane waves:   12162
 k-point  8 :  -0.3333 0.0000 0.3333  plane waves:   12162
 k-point  9 :   0.0000 0.3333 0.3333  plane waves:   12162
 k-point 10 :   0.3333 0.3333 0.3333  plane waves:   12127
 k-point 11 :  -0.3333 0.3333 0.3333  plane waves:   12127
 k-point 12 :   0.0000-0.3333 0.3333  plane waves:   12162
 k-point 13 :   0.3333-0.3333 0.3333  plane waves:   12127
 k-point 14 :  -0.3333-0.3333 0.3333  plane waves:   12127

 maximum and minimum number of plane-waves per node :      1555     1488

 maximum number of plane-waves:     12162
 maximum index in each direction: 
   IXMAX=   14   IYMAX=   14   IZMAX=   14
   IXMIN=  -14   IYMIN=  -14   IZMIN=  -14


 parallel 3D FFT for wavefunctions:
    minimum data exchange during FFTs selected (reduces bandwidth)
 parallel 3D FFT for charge:
    minimum data exchange during FFTs selected (reduces bandwidth)


 total amount of memory used by VASP MPI-rank0    44681. kBytes
=======================================================================

   base      :      30000. kBytes
   nonl-proj :       4392. kBytes
   fftplans  :       1021. kBytes
   grid      :       1605. kBytes
   one-center:         24. kBytes
   wavefun   :       7639. kBytes
 
     INWAV:  cpu time    0.0000: real time    0.0000
 Broyden mixing: mesh for mixing (old mesh)
   NGX = 29   NGY = 29   NGZ = 29
  (NGX  = 96   NGY  = 96   NGZ  = 96)
  gives a total of  24389 points

 initial charge density was supplied:
 charge density of overlapping atoms calculated
 number of electron     256.0000000 magnetization 
 keeping initial charge density in first step


--------------------------------------------------------------------------------------------------------


 Maximum index for augmentation-charges          373 (set IRDMAX)


--------------------------------------------------------------------------------------------------------


 First call to EWALD:  gamma=   0.203
 Maximum number of real-space cells 3x 3x 3
 Maximum number of reciprocal cells 3x 3x 3

    FEWALD:  cpu time    0.0077: real time    0.0077


--------------------------------------- Iteration      1(   1)  ---------------------------------------


    POTLOK:  cpu time    0.0315: real time    0.0508
    SETDIJ:  cpu time    0.0053: real time    0.0053
     EDDAV:  cpu time    5.0828: real time    5.1234
       DOS:  cpu time    0.0029: real time    0.0029
    --------------------------------------------
      LOOP:  cpu time    5.1225: real time    5.1824

 eigenvalue-minimisations  :  4704
 total energy-change (2. order) : 0.6711524E+03  (-0.9966623E+04)
 number of electron     256.0000000 magnetization 
 augmentation part      256.0000000 magnetization 

 Free energy of the ion-electron system (eV)
  ---------------------------------------------------
  alpha Z        PSCENC =       354.85177120
  Ewald energy   TEWEN  =     -9084.70117892
  -Hartree energ DENC   =      -670.19729988
  -exchange      EXHF   =         0.00000000
  -V(xc)+E(xc)   XCENC  =       145.81931225
  PAW double counting   =      6292.66707184    -5747.90303932
  entropy T*S    EENTRO =        -0.00484305
  eigenvalues    EBANDS =      1374.44552588
  atomic energy  EATOM  =      8006.17504320
  Solvation  Ediel_sol  =         0.00000000
  ---------------------------------------------------
  free energy    TOTEN  =       671.15236319 eV

  energy without entropy =      671.15720624  energy(sigma->0) =      671.15397754


--------------------------------------------------------------------------------------------------------




--------------------------------------- Iteration      1(   2)  ---------------------------------------


     EDDAV:  cpu time    5.6425: real time    5.6512
       DOS:  cpu time    0.0024: real time    0.0024
    --------------------------------------------
      LOOP:  cpu time    5.6449: real time    5.6536

 eigenvalue-minimisations  :  5816
 total energy-change (2. order) :-0.1134294E+04  (-0.1075913E+04)
 number of electron     256.0000000 magnetization 
 augmentation part      256.0000000 magnetization 

 Free energy of the ion-electron system (eV)
  ---------------------------------------------------
  alpha Z        PSCENC =       354.85177120
  Ewald energy   TEWEN  =     -9084.70117892
  -Hartree energ DENC   =      -670.19729988
  -exchange      EXHF   =         0.00000000
  -V(xc)+E(xc)   XCENC  =       145.81931225
  PAW double counting   =      6292.66707184    -5747.90303932
  entropy T*S    EENTRO =         0.01335861
  eigenvalues    EBANDS =       240.13363100
  atomic energy  EATOM  =      8006.17504320
  Solvation  Ediel_sol  =         0.00000000
  ---------------------------------------------------
  free energy    TOTEN  =      -463.14133004 eV

  energy without entropy =     -463.15468864  energy(sigma->0) =     -463.14578291


--------------------------------------------------------------------------------------------------------




--------------------------------------- Iteration      1(   3)  ---------------------------------------


     EDDAV:  cpu time    5.5507: real time    5.5581
       DOS:  cpu time    0.0025: real time    0.0025
    --------------------------------------------
      LOOP:  cpu time    5.5532: real time    5.5607

 eigenvalue-minimisations  :  5680
 total energy-change (2. order) :-0.7524884E+02  (-0.7457379E+02)
 number of electron     256.0000000 magnetization 
 augmentation part      256.0000000 magnetization 

 Free energy of the ion-electron system (eV)
  ---------------------------------------------------
  alpha Z        PSCENC =       354.85177120
  Ewald energy   TEWEN  =     -9084.70117892
  -Hartree energ DENC   =      -670.19729988
  -exchange      EXHF   =         0.00000000
  -V(xc)+E(xc)   XCENC  =       145.81931225
  PAW double counting   =      6292.66707184    -5747.90303932
  entropy T*S    EENTRO =         0.01846836
  eigenvalues    EBANDS =       164.87967949
  atomic energy  EATOM  =      8006.17504320
  Solvation  Ediel_sol  =         0.00000000
  ---------------------------------------------------
  free energy    TOTEN  =      -538.39017180 eV

  energy without entropy =     -538.40864015  energy(sigma->0) =     -538.39632791


--------------------------------------------------------------------------------------------------------




--------------------------------------- Iteration      1(   4)  ---------------------------------------


     EDDAV:  cpu time    5.5676: real time    5.5748
       DOS:  cpu time    0.0026: real time    0.0026
    --------------------------------------------
      LOOP:  cpu time    5.5703: real time    5.5774

 eigenvalue-minimisations  :  5720
 total energy-change (2. order) :-0.1657763E+01  (-0.1650892E+01)
 number of electron     256.0000000 magnetization 
 augmentation part      256.0000000 magnetization 

 Free energy of the ion-electron system (eV)
  ---------------------------------------------------
  alpha Z        PSCENC =       354.85177120
  Ewald energy   TEWEN  =     -9084.70117892
  -Hartree energ DENC   =      -670.19729988
  -exchange      EXHF   =         0.00000000
  -V(xc)+E(xc)   XCENC  =       145.81931225
  PAW double counting   =      6292.66707184    -5747.90303932
  entropy T*S    EENTRO =         0.01926307
  eigenvalues    EBANDS =       163.22112175
  atomic energy  EATOM  =      8006.17504320
  Solvation  Ediel_sol  =         0.00000000
  ---------------------------------------------------
  free energy    TOTEN  =      -540.04793482 eV

  energy without entropy =     -540.06719789  energy(sigma->0) =     -540.05435585


--------------------------------------------------------------------------------------------------------




--------------------------------------- Iteration      1(   5)  ---------------------------------------


     EDDAV:  cpu time    5.4338: real time    5.4416
       DOS:  cpu time    0.0027: real time    0.0027
    CHARGE:  cpu time    0.1205: real time    0.1241
    MIXING:  cpu time    0.0010: real time    0.0010
    --------------------------------------------
      LOOP:  cpu time    5.5580: real time    5.5694

 eigenvalue-minimisations  :  5552
 total energy-change (2. order) :-0.4552935E-01  (-0.4545922E-01)
 number of electron     255.9999662 magnetization 
 augmentation part       -1.6341003 magnetization 

 Broyden mixing:
  rms(total) = 0.49064E+01    rms(broyden)= 0.49060E+01
  rms(prec ) = 0.66514E+01
  weight for this iteration     100.00

 Free energy of the ion-electron system (eV)
  ---------------------------------------------------
  alpha Z        PSCENC =       354.85177120
  Ewald energy   TEWEN  =     -9084.70117892
  -Hartree energ DENC   =      -670.19729988
  -exchange      EXHF   =         0.00000000
  -V(xc)+E(xc)   XCENC  =       145.81931225
  PAW double counting   =      6292.66707184    -5747.90303932
  entropy T*S    EENTRO =         0.01923388
  eigenvalues    EBANDS =       163.17562158
  atomic energy  EATOM  =      8006.17504320
  Solvation  Ediel_sol  =         0.00000000
  ---------------------------------------------------
  free energy    TOTEN  =      -540.09346417 eV

  energy without entropy =     -540.11269806  energy(sigma->0) =     -540.09987547


--------------------------------------------------------------------------------------------------------




--------------------------------------- Iteration      1(   6)  ---------------------------------------


    POTLOK:  cpu time    0.2654: real time    0.2737
    SETDIJ:  cpu time    0.0040: real time    0.0040
     EDDAV:  cpu time    5.2554: real time    5.2555
       DOS:  cpu time    0.0026: real time    0.0026
    CHARGE:  cpu time    0.1287: real time    0.1287
    MIXING:  cpu time    0.0123: real time    0.0124
    --------------------------------------------
      LOOP:  cpu time    5.6686: real time    5.6770

 eigenvalue-minimisations  :  5336
 total energy-change (2. order) : 0.5639012E+02  (-0.1897429E+02)
 number of electron     255.9999773 magnetization 
 augmentation part       -3.5939923 magnetization 

 Broyden mixing:
  rms(total) = 0.21769E+01    rms(broyden)= 0.21766E+01
  rms(prec ) = 0.24507E+01
  weight for this iteration     100.00

 eigenvalues of (default mixing * dielectric matrix)
  average eigenvalue GAMMA=   1.3197
  1.3197

 Free energy of the ion-electron system (eV)
  ---------------------------------------------------
  alpha Z        PSCENC =       354.85177120
  Ewald energy   TEWEN  =     -9084.70117892
  -Hartree energ DENC   =      -921.40559889
  -exchange      EXHF   =         0.00000000
  -V(xc)+E(xc)   XCENC  =       167.37829089
  PAW double counting   =     14963.00166919   -14421.39219097
  entropy T*S    EENTRO =         0.00985467
  eigenvalues    EBANDS =       452.37899103
  atomic energy  EATOM  =      8006.17504320
  Solvation  Ediel_sol  =         0.00000000
  ---------------------------------------------------
  free energy    TOTEN  =      -483.70334861 eV

  energy without entropy =     -483.71320328  energy(sigma->0) =     -483.70663350


--------------------------------------------------------------------------------------------------------




--------------------------------------- Iteration      1(   7)  ---------------------------------------


    POTLOK:  cpu time    0.0170: real time    0.0172
    SETDIJ:  cpu time    0.0041: real time    0.0041
     EDDAV:  cpu time    5.6923: real time    5.6924
       DOS:  cpu time    0.0031: real time    0.0031
    CHARGE:  cpu time    0.1409: real time    0.1409
    MIXING:  cpu time    0.0010: real time    0.0010
    --------------------------------------------
      LOOP:  cpu time    5.8582: real time    5.8586

 eigenvalue-minimisations  :  5928
 total energy-change (2. order) : 0.1379761E+01  (-0.1534004E+01)
 number of electron     255.9999790 magnetization 
 augmentation part       -4.0502525 magnetization 

 Broyden mixing:
  rms(total) = 0.97053E+00    rms(broyden)= 0.97042E+00
  rms(prec ) = 0.10780E+01
  weight for this iteration     100.00

 eigenvalues of (default mixing * dielectric matrix)
  average eigenvalue GAMMA=   1.4935
  1.3826  1.6044

 Free energy of the ion-electron system (eV)
  ---------------------------------------------------
  alpha Z        PSCENC =       354.85177120
  Ewald energy   TEWEN  =     -9084.70117892
  -Hartree energ DENC   =      -995.95228398
  -exchange      EXHF   =         0.00000000
  -V(xc)+E(xc)   XCENC  =       175.06932641
  PAW double counting   =     24755.59299671   -24215.30480083
  entropy T*S    EENTRO =         0.00893532
  eigenvalues    EBANDS =       521.93660292
  atomic energy  EATOM  =      8006.17504320
  Solvation  Ediel_sol  =         0.00000000
  ---------------------------------------------------
  free energy    TOTEN  =      -482.32358798 eV

  energy without entropy =     -482.33252330  energy(sigma->0) =     -482.32656642


--------------------------------------------------------------------------------------------------------




--------------------------------------- Iteration      1(   8)  ---------------------------------------


    POTLOK:  cpu time    0.0174: real time    0.0177
    SETDIJ:  cpu time    0.0040: real time    0.0040
     EDDAV:  cpu time    5.2257: real time    5.2258
       DOS:  cpu time    0.0024: real time    0.0024
    CHARGE:  cpu time    0.1105: real time    0.1105
    MIXING:  cpu time    0.0010: real time    0.0010
    --------------------------------------------
      LOOP:  cpu time    5.3611: real time    5.3614

 eigenvalue-minimisations  :  5304
 total energy-change (2. order) : 0.2260231E+00  (-0.9788675E-01)
 number of electron     255.9999785 magnetization 
 augmentation part       -3.9107556 magnetization 

 Broyden mixing:
  rms(total) = 0.25210E+00    rms(broyden)= 0.25210E+00
  rms(prec ) = 0.30093E+00
  weight for this iteration     100.00

 eigenvalues of (default mixing * dielectric matrix)
  average eigenvalue GAMMA=   1.5543
  2.4537  1.1046  1.1046

 Free energy of the ion-electron system (eV)
  ---------------------------------------------------
  alpha Z        PSCENC =       354.85177120
  Ewald energy   TEWEN  =     -9084.70117892
  -Hartree energ DENC   =     -1006.39863651
  -exchange      EXHF   =         0.00000000
  -V(xc)+E(xc)   XCENC  =       177.34051879
  PAW double counting   =     30774.50632181   -30235.19175355
  entropy T*S    EENTRO =         0.00913549
  eigenvalues    EBANDS =       531.31121360
  atomic energy  EATOM  =      8006.17504320
  Solvation  Ediel_sol  =         0.00000000
  ---------------------------------------------------
  free energy    TOTEN  =      -482.09756489 eV

  energy without entropy =     -482.10670038  energy(sigma->0) =     -482.10061006


--------------------------------------------------------------------------------------------------------




--------------------------------------- Iteration      1(   9)  ---------------------------------------


    POTLOK:  cpu time    0.0160: real time    0.0162
    SETDIJ:  cpu time    0.0039: real time    0.0039
     EDDAV:  cpu time    5.3408: real time    5.3409
       DOS:  cpu time    0.0027: real time    0.0027
    CHARGE:  cpu time    0.1343: real time    0.1343
    MIXING:  cpu time    0.0010: real time    0.0010
    --------------------------------------------
      LOOP:  cpu time    5.4988: real time    5.4990

 eigenvalue-minimisations  :  5456
 total energy-change (2. order) : 0.1570306E-01  (-0.1288793E-01)
 number of electron     255.9999787 magnetization 
 augmentation part       -3.9326475 magnetization 

 Broyden mixing:
  rms(total) = 0.41264E-01    rms(broyden)= 0.41262E-01
  rms(prec ) = 0.45791E-01
  weight for this iteration     100.00

 eigenvalues of (default mixing * dielectric matrix)
  average eigenvalue GAMMA=   1.6595
  1.1135  1.1135  2.2055  2.2055

 Free energy of the ion-electron system (eV)
  ---------------------------------------------------
  alpha Z        PSCENC =       354.85177120
  Ewald energy   TEWEN  =     -9084.70117892
  -Hartree energ DENC   =     -1021.64509436
  -exchange      EXHF   =         0.00000000
  -V(xc)+E(xc)   XCENC  =       179.13233807
  PAW double counting   =     33314.06276161   -32775.07131938
  entropy T*S    EENTRO =         0.00903719
  eigenvalues    EBANDS =       545.10477955
  atomic energy  EATOM  =      8006.17504320
  Solvation  Ediel_sol  =         0.00000000
  ---------------------------------------------------
  free energy    TOTEN  =      -482.08186184 eV

  energy without entropy =     -482.09089902  energy(sigma->0) =     -482.08487423


--------------------------------------------------------------------------------------------------------




--------------------------------------- Iteration      1(  10)  ---------------------------------------


    POTLOK:  cpu time    0.0160: real time    0.0162
    SETDIJ:  cpu time    0.0039: real time    0.0039
     EDDAV:  cpu time    5.3259: real time    5.3259
       DOS:  cpu time    0.0027: real time    0.0027
    CHARGE:  cpu time    0.1342: real time    0.1342
    MIXING:  cpu time    0.0010: real time    0.0010
    --------------------------------------------
      LOOP:  cpu time    5.4837: real time    5.4840

 eigenvalue-minimisations  :  5432
 total energy-change (2. order) :-0.3731495E-02  (-0.1193596E-02)
 number of electron     255.9999787 magnetization 
 augmentation part       -3.9461385 magnetization 

 Broyden mixing:
  rms(total) = 0.20347E-01    rms(broyden)= 0.20345E-01
  rms(prec ) = 0.23690E-01
  weight for this iteration     100.00

 eigenvalues of (default mixing * dielectric matrix)
  average eigenvalue GAMMA=   1.7737
  3.0882  2.5218  1.0975  1.0975  1.0638

 Free energy of the ion-electron system (eV)
  ---------------------------------------------------
  alpha Z        PSCENC =       354.85177120
  Ewald energy   TEWEN  =     -9084.70117892
  -Hartree energ DENC   =     -1022.40535532
  -exchange      EXHF   =         0.00000000
  -V(xc)+E(xc)   XCENC  =       179.20670583
  PAW double counting   =     33080.03404203   -32540.94657617
  entropy T*S    EENTRO =         0.00902221
  eigenvalues    EBANDS =       545.69093261
  atomic energy  EATOM  =      8006.17504320
  Solvation  Ediel_sol  =         0.00000000
  ---------------------------------------------------
  free energy    TOTEN  =      -482.08559333 eV

  energy without entropy =     -482.09461555  energy(sigma->0) =     -482.08860074


--------------------------------------------------------------------------------------------------------




--------------------------------------- Iteration      1(  11)  ---------------------------------------


    POTLOK:  cpu time    0.0160: real time    0.0162
    SETDIJ:  cpu time    0.0038: real time    0.0038
     EDDAV:  cpu time    5.1250: real time    5.1251
       DOS:  cpu time    0.0030: real time    0.0030
    CHARGE:  cpu time    0.1338: real time    0.1338
    MIXING:  cpu time    0.0011: real time    0.0011
    --------------------------------------------
      LOOP:  cpu time    5.2826: real time    5.2829

 eigenvalue-minimisations  :  5168
 total energy-change (2. order) :-0.4906558E-03  (-0.1624068E-03)
 number of electron     255.9999787 magnetization 
 augmentation part       -3.9429172 magnetization 

 Broyden mixing:
  rms(total) = 0.48330E-02    rms(broyden)= 0.48327E-02
  rms(prec ) = 0.52715E-02
  weight for this iteration     100.00

 eigenvalues of (default mixing * dielectric matrix)
  average eigenvalue GAMMA=   1.6768
  2.8692  2.4715  0.9715  1.1240  1.1240  1.5008

 Free energy of the ion-electron system (eV)
  ---------------------------------------------------
  alpha Z        PSCENC =       354.85177120
  Ewald energy   TEWEN  =     -9084.70117892
  -Hartree energ DENC   =     -1022.55638440
  -exchange      EXHF   =         0.00000000
  -V(xc)+E(xc)   XCENC  =       179.25843060
  PAW double counting   =     32986.55340873   -32447.44551255
  entropy T*S    EENTRO =         0.00902898
  eigenvalues    EBANDS =       545.76930919
  atomic energy  EATOM  =      8006.17504320
  Solvation  Ediel_sol  =         0.00000000
  ---------------------------------------------------
  free energy    TOTEN  =      -482.08608399 eV

  energy without entropy =     -482.09511296  energy(sigma->0) =     -482.08909365


--------------------------------------------------------------------------------------------------------




--------------------------------------- Iteration      1(  12)  ---------------------------------------


    POTLOK:  cpu time    0.0540: real time    0.0561
    SETDIJ:  cpu time    0.0038: real time    0.0038
     EDDAV:  cpu time    5.3468: real time    5.3468
       DOS:  cpu time    0.0030: real time    0.0030
    CHARGE:  cpu time    0.1338: real time    0.1338
    MIXING:  cpu time    0.0011: real time    0.0011
    --------------------------------------------
      LOOP:  cpu time    5.5425: real time    5.5447

 eigenvalue-minimisations  :  5464
 total energy-change (2. order) :-0.2083806E-04  (-0.7976737E-05)
 number of electron     255.9999787 magnetization 
 augmentation part       -3.9420394 magnetization 

 Broyden mixing:
  rms(total) = 0.17003E-02    rms(broyden)= 0.17003E-02
  rms(prec ) = 0.17870E-02
  weight for this iteration     100.00

 eigenvalues of (default mixing * dielectric matrix)
  average eigenvalue GAMMA=   1.6357
  2.9087  2.5180  1.9294  1.1175  1.1175  1.0186  0.8403

 Free energy of the ion-electron system (eV)
  ---------------------------------------------------
  alpha Z        PSCENC =       354.85177120
  Ewald energy   TEWEN  =     -9084.70117892
  -Hartree energ DENC   =     -1022.60219343
  -exchange      EXHF   =         0.00000000
  -V(xc)+E(xc)   XCENC  =       179.25845923
  PAW double counting   =     32984.36154122   -32445.27042764
  entropy T*S    EENTRO =         0.00902920
  eigenvalues    EBANDS =       545.83185111
  atomic energy  EATOM  =      8006.17504320
  Solvation  Ediel_sol  =         0.00000000
  ---------------------------------------------------
  free energy    TOTEN  =      -482.08610483 eV

  energy without entropy =     -482.09513402  energy(sigma->0) =     -482.08911456


--------------------------------------------------------------------------------------------------------




--------------------------------------- Iteration      1(  13)  ---------------------------------------


    POTLOK:  cpu time    0.0161: real time    0.0163
    SETDIJ:  cpu time    0.0039: real time    0.0039
     EDDAV:  cpu time    5.5252: real time    5.5252
       DOS:  cpu time    0.0031: real time    0.0031
    CHARGE:  cpu time    0.1340: real time    0.1340
    MIXING:  cpu time    0.0012: real time    0.0012
    --------------------------------------------
      LOOP:  cpu time    5.6835: real time    5.6837

 eigenvalue-minimisations  :  5704
 total energy-change (2. order) :-0.5474896E-05  (-0.3215247E-06)
 number of electron     255.9999787 magnetization 
 augmentation part       -3.9418235 magnetization 

 Broyden mixing:
  rms(total) = 0.34100E-03    rms(broyden)= 0.34098E-03
  rms(prec ) = 0.39888E-03
  weight for this iteration     100.00

 eigenvalues of (default mixing * dielectric matrix)
  average eigenvalue GAMMA=   1.6048
  2.8805  2.4961  2.0312  1.1323  1.1323  1.1733  0.9539  1.0391

 Free energy of the ion-electron system (eV)
  ---------------------------------------------------
  alpha Z        PSCENC =       354.85177120
  Ewald energy   TEWEN  =     -9084.70117892
  -Hartree energ DENC   =     -1022.62563816
  -exchange      EXHF   =         0.00000000
  -V(xc)+E(xc)   XCENC  =       179.25918188
  PAW double counting   =     32969.23384375   -32430.14528133
  entropy T*S    EENTRO =         0.00902912
  eigenvalues    EBANDS =       545.85711897
  atomic energy  EATOM  =      8006.17504320
  Solvation  Ediel_sol  =         0.00000000
  ---------------------------------------------------
  free energy    TOTEN  =      -482.08611030 eV

  energy without entropy =     -482.09513942  energy(sigma->0) =     -482.08912001


--------------------------------------------------------------------------------------------------------




--------------------------------------- Iteration      1(  14)  ---------------------------------------


    POTLOK:  cpu time    0.0160: real time    0.0162
    SETDIJ:  cpu time    0.0039: real time    0.0039
     EDDAV:  cpu time    5.8762: real time    5.8762
       DOS:  cpu time    0.0030: real time    0.0030
    CHARGE:  cpu time    0.1334: real time    0.1334
    MIXING:  cpu time    0.0012: real time    0.0012
    --------------------------------------------
      LOOP:  cpu time    6.0336: real time    6.0339

 eigenvalue-minimisations  :  6168
 total energy-change (2. order) :-0.1834611E-05  (-0.3954748E-07)
 number of electron     255.9999787 magnetization 
 augmentation part       -3.9417823 magnetization 

 Broyden mixing:
  rms(total) = 0.22482E-03    rms(broyden)= 0.22481E-03
  rms(prec ) = 0.23896E-03
  weight for this iteration     100.00

 eigenvalues of (default mixing * dielectric matrix)
  average eigenvalue GAMMA=   1.6277
  2.9070  2.6414  2.3739  1.6128  1.1274  1.1274  0.9382  0.9607  0.9607

 Free energy of the ion-electron system (eV)
  ---------------------------------------------------
  alpha Z        PSCENC =       354.85177120
  Ewald energy   TEWEN  =     -9084.70117892
  -Hartree energ DENC   =     -1022.63613801
  -exchange      EXHF   =         0.00000000
  -V(xc)+E(xc)   XCENC  =       179.25988194
  PAW double counting   =     32970.50998912   -32431.42218091
  entropy T*S    EENTRO =         0.00902906
  eigenvalues    EBANDS =       545.86767119
  atomic energy  EATOM  =      8006.17504320
  Solvation  Ediel_sol  =         0.00000000
  ---------------------------------------------------
  free energy    TOTEN  =      -482.08611213 eV

  energy without entropy =     -482.09514119  energy(sigma->0) =     -482.08912182


--------------------------------------------------------------------------------------------------------




--------------------------------------- Iteration      1(  15)  ---------------------------------------


    POTLOK:  cpu time    0.0159: real time    0.0162
    SETDIJ:  cpu time    0.0039: real time    0.0039
     EDDAV:  cpu time    5.2033: real time    5.2035
       DOS:  cpu time    0.0028: real time    0.0028
    CHARGE:  cpu time    0.1340: real time    0.1340
    MIXING:  cpu time    0.0013: real time    0.0013
    --------------------------------------------
      LOOP:  cpu time    5.3613: real time    5.3618

 eigenvalue-minimisations  :  5272
 total energy-change (2. order) :-0.5961774E-06  (-0.1102286E-07)
 number of electron     255.9999787 magnetization 
 augmentation part       -3.9417840 magnetization 

 Broyden mixing:
  rms(total) = 0.19224E-03    rms(broyden)= 0.19224E-03
  rms(prec ) = 0.19630E-03
  weight for this iteration     100.00

 eigenvalues of (default mixing * dielectric matrix)
  average eigenvalue GAMMA=   1.6061
  3.0430  2.8144  2.4371  1.4667  1.1439  1.1439  1.1267  1.1267  0.9647  0.7939

 Free energy of the ion-electron system (eV)
  ---------------------------------------------------
  alpha Z        PSCENC =       354.85177120
  Ewald energy   TEWEN  =     -9084.70117892
  -Hartree energ DENC   =     -1022.64090030
  -exchange      EXHF   =         0.00000000
  -V(xc)+E(xc)   XCENC  =       179.26011229
  PAW double counting   =     32970.43720142   -32431.34952367
  entropy T*S    EENTRO =         0.00902900
  eigenvalues    EBANDS =       545.87233304
  atomic energy  EATOM  =      8006.17504320
  Solvation  Ediel_sol  =         0.00000000
  ---------------------------------------------------
  free energy    TOTEN  =      -482.08611273 eV

  energy without entropy =     -482.09514173  energy(sigma->0) =     -482.08912240


--------------------------------------------------------------------------------------------------------




--------------------------------------- Iteration      1(  16)  ---------------------------------------


    POTLOK:  cpu time    0.0160: real time    0.0162
    SETDIJ:  cpu time    0.0040: real time    0.0040
     EDDAV:  cpu time    3.7623: real time    3.7623
       DOS:  cpu time    0.0024: real time    0.0024
    CHARGE:  cpu time    0.1346: real time    0.1346
    MIXING:  cpu time    0.0014: real time    0.0014
    --------------------------------------------
      LOOP:  cpu time    3.9206: real time    3.9209

 eigenvalue-minimisations  :  3272
 total energy-change (2. order) :-0.9610449E-07  (-0.1946147E-08)
 number of electron     255.9999787 magnetization 
 augmentation part       -3.9417869 magnetization 

 Broyden mixing:
  rms(total) = 0.15329E-03    rms(broyden)= 0.15329E-03
  rms(prec ) = 0.15578E-03
  weight for this iteration     100.00

 eigenvalues of (default mixing * dielectric matrix)
  average eigenvalue GAMMA=   1.6418
  3.0074  2.6168  2.6168  2.2692  1.1726  1.1726  1.1003  1.1003  1.1056  0.9830
  0.9151

 Free energy of the ion-electron system (eV)
  ---------------------------------------------------
  alpha Z        PSCENC =       354.85177120
  Ewald energy   TEWEN  =     -9084.70117892
  -Hartree energ DENC   =     -1022.64278875
  -exchange      EXHF   =         0.00000000
  -V(xc)+E(xc)   XCENC  =       179.26024950
  PAW double counting   =     32970.97516931   -32431.88746654
  entropy T*S    EENTRO =         0.00902898
  eigenvalues    EBANDS =       545.87405919
  atomic energy  EATOM  =      8006.17504320
  Solvation  Ediel_sol  =         0.00000000
  ---------------------------------------------------
  free energy    TOTEN  =      -482.08611283 eV

  energy without entropy =     -482.09514181  energy(sigma->0) =     -482.08912249


--------------------------------------------------------------------------------------------------------




--------------------------------------- Iteration      1(  17)  ---------------------------------------


    POTLOK:  cpu time    0.0160: real time    0.0180
    SETDIJ:  cpu time    0.0039: real time    0.0039
     EDDAV:  cpu time    3.3828: real time    3.3829
       DOS:  cpu time    0.0030: real time    0.0030
    CHARGE:  cpu time    0.1337: real time    0.1337
    MIXING:  cpu time    0.0014: real time    0.0014
    --------------------------------------------
      LOOP:  cpu time    3.5408: real time    3.5428

 eigenvalue-minimisations  :  2760
 total energy-change (2. order) : 0.4447465E-06  (-0.2031202E-08)
 number of electron     255.9999787 magnetization 
 augmentation part       -3.9418039 magnetization 

 Broyden mixing:
  rms(total) = 0.20009E-04    rms(broyden)= 0.20007E-04
  rms(prec ) = 0.23086E-04
  weight for this iteration     100.00

 eigenvalues of (default mixing * dielectric matrix)
  average eigenvalue GAMMA=   1.5655
  2.9988  2.6968  2.5735  2.2307  1.1483  1.1483  1.1167  1.1167  1.1346  0.9712
  0.9387  0.7121

 Free energy of the ion-electron system (eV)
  ---------------------------------------------------
  alpha Z        PSCENC =       354.85177120
  Ewald energy   TEWEN  =     -9084.70117892
  -Hartree energ DENC   =     -1022.64168495
  -exchange      EXHF   =         0.00000000
  -V(xc)+E(xc)   XCENC  =       179.26024751
  PAW double counting   =     32972.59821280   -32433.51020471
  entropy T*S    EENTRO =         0.00902897
  eigenvalues    EBANDS =       545.87265252
  atomic energy  EATOM  =      8006.17504320
  Solvation  Ediel_sol  =         0.00000000
  ---------------------------------------------------
  free energy    TOTEN  =      -482.08611238 eV

  energy without entropy =     -482.09514136  energy(sigma->0) =     -482.08912204


--------------------------------------------------------------------------------------------------------




--------------------------------------- Iteration      1(  18)  ---------------------------------------


    POTLOK:  cpu time    0.0252: real time    0.0280
    SETDIJ:  cpu time    0.0040: real time    0.0040
     EDDAV:  cpu time    3.3436: real time    3.3437
       DOS:  cpu time    0.0029: real time    0.0029
    CHARGE:  cpu time    0.1326: real time    0.1326
    MIXING:  cpu time    0.0015: real time    0.0015
    --------------------------------------------
      LOOP:  cpu time    3.5097: real time    3.5126

 eigenvalue-minimisations  :  2704
 total energy-change (2. order) :-0.1420631E-07  (-0.2689272E-09)
 number of electron     255.9999787 magnetization 
 augmentation part       -3.9418043 magnetization 

 Broyden mixing:
  rms(total) = 0.16962E-04    rms(broyden)= 0.16961E-04
  rms(prec ) = 0.18924E-04
  weight for this iteration     100.00

 eigenvalues of (default mixing * dielectric matrix)
  average eigenvalue GAMMA=   1.5192
  2.9898  2.6582  2.5585  2.2841  1.1749  1.1749  1.1231  1.1231  1.1640  0.9808
  0.9292  0.7948  0.7948

 Free energy of the ion-electron system (eV)
  ---------------------------------------------------
  alpha Z        PSCENC =       354.85177120
  Ewald energy   TEWEN  =     -9084.70117892
  -Hartree energ DENC   =     -1022.64182910
  -exchange      EXHF   =         0.00000000
  -V(xc)+E(xc)   XCENC  =       179.26025704
  PAW double counting   =     32972.57791376   -32433.48991981
  entropy T*S    EENTRO =         0.00902897
  eigenvalues    EBANDS =       545.87280126
  atomic energy  EATOM  =      8006.17504320
  Solvation  Ediel_sol  =         0.00000000
  ---------------------------------------------------
  free energy    TOTEN  =      -482.08611240 eV

  energy without entropy =     -482.09514137  energy(sigma->0) =     -482.08912205


--------------------------------------------------------------------------------------------------------




--------------------------------------- Iteration      1(  19)  ---------------------------------------


    POTLOK:  cpu time    0.0160: real time    0.0162
    SETDIJ:  cpu time    0.0039: real time    0.0039
     EDDAV:  cpu time    3.3276: real time    3.3276
       DOS:  cpu time    0.0025: real time    0.0025
    --------------------------------------------
      LOOP:  cpu time    3.3500: real time    3.3502

 eigenvalue-minimisations  :  2688
 total energy-change (2. order) : 0.6999471E-08  (-0.2971070E-10)
 number of electron     255.9999787 magnetization 
 augmentation part       -3.9418043 magnetization 

 Free energy of the ion-electron system (eV)
  ---------------------------------------------------
  alpha Z        PSCENC =       354.85177120
  Ewald energy   TEWEN  =     -9084.70117892
  -Hartree energ DENC   =     -1022.64167734
  -exchange      EXHF   =         0.00000000
  -V(xc)+E(xc)   XCENC  =       179.26024306
  PAW double counting   =     32972.53174011   -32433.44374483
  entropy T*S    EENTRO =         0.00902897
  eigenvalues    EBANDS =       545.87266216
  atomic energy  EATOM  =      8006.17504320
  Solvation  Ediel_sol  =         0.00000000
  ---------------------------------------------------
  free energy    TOTEN  =      -482.08611239 eV

  energy without entropy =     -482.09514136  energy(sigma->0) =     -482.08912205


--------------------------------------------------------------------------------------------------------




 average (electrostatic) potential at core
  the test charge radii are     0.6991  0.9892
  (the norm of the test charge is              1.0000)
       1 -44.9430       2 -44.9430       3 -44.9430       4 -44.9430       5 -44.9430
       6 -44.9430       7 -44.9430       8 -44.9430       9 -44.9430      10 -44.9430
      11 -44.9430      12 -44.9430      13 -44.9430      14 -44.9430      15 -44.9430
      16 -44.9430      17 -44.9430      18 -44.9430      19 -44.9430      20 -44.9430
      21 -44.9430      22 -44.9430      23 -44.9430      24 -44.9430      25 -44.9430
      26 -44.9430      27 -44.9430      28 -44.9430      29 -44.9430      30 -44.9430
      31 -44.9430      32 -44.9430      33 -80.5007      34 -80.5007      35 -80.5007
      36 -80.5007      37 -80.5007      38 -80.5007      39 -80.5007      40 -80.5007
      41 -80.5007      42 -80.5007      43 -80.5007      44 -80.5007      45 -80.5007
      46 -80.5007      47 -80.5007      48 -80.5007      49 -80.5007      50 -80.5007
      51 -80.5007      52 -80.5007      53 -80.5007      54 -80.5007      55 -80.5007
      56 -80.5007      57 -80.5007      58 -80.5007      59 -80.5007      60 -80.5007
      61 -80.5007      62 -80.5007      63 -80.5007      64 -80.5007
 
 
 
 E-fermi :   8.1334     XC(G=0): -11.3151     alpha+bet :-16.2812


 k-point     1 :       0.0000    0.0000    0.0000
  band No.  band energies     occupation 
      1      -7.3302      2.00000
      2      -5.7452      2.00000
      3      -5.7452      2.00000
      4      -5.7452      2.00000
      5      -5.7452      2.00000
      6      -5.7452      2.00000
      7      -5.7452      2.00000
      8      -4.3320      2.00000
      9      -4.3320      2.00000
     10      -4.3320      2.00000
     11      -4.3320      2.00000
     12      -4.3320      2.00000
     13      -4.3320      2.00000
     14      -4.3320      2.00000
     15      -4.3320      2.00000
     16      -4.3320      2.00000
     17      -4.3320      2.00000
     18      -4.3320      2.00000
     19      -4.3320      2.00000
     20      -3.8004      2.00000
     21      -3.8004      2.00000
     22      -3.8004      2.00000
     23      -3.8004      2.00000
     24      -2.3598      2.00000
     25      -2.3598      2.00000
     26      -2.3597      2.00000
     27      -2.1339      2.00000
     28      -2.1339      2.00000
     29      -2.1339      2.00000
     30      -2.1339      2.00000
     31      -2.1339      2.00000
     32      -2.1339      2.00000
     33      -0.4821      2.00000
     34      -0.4821      2.00000
     35      -0.4821      2.00000
     36      -0.4821      2.00000
     37       0.2358      2.00000
     38       0.2358      2.00000
     39       0.2358      2.00000
     40       0.9949      2.00000
     41       0.9949      2.00000
     42       0.9949      2.00000
     43       0.9949      2.00000
     44       0.9949      2.00000
     45       0.9949      2.00000
     46       2.0801      2.00000
     47       2.0801      2.00000
     48       2.0801      2.00000
     49       2.0801      2.00000
     50       2.0801      2.00000
     51       2.0801      2.00000
     52       2.0801      2.00000
     53       2.0801      2.00000
     54       2.0801      2.00000
     55       2.0801      2.00000
     56       2.0801      2.00000
     57       2.0801      2.00000
     58       3.0568      2.00000
     59       3.0568      2.00000
     60       3.0568      2.00000
     61       3.0568      2.00000
     62       3.0568      2.00000
     63       3.0568      2.00000
     64       3.3517      2.00000
     65       3.3517      2.00000
     66       3.3517      2.00000
     67       3.3517      2.00000
     68       3.3517      2.00000
     69       3.3517      2.00000
     70       3.6910      2.00000
     71       3.6910      2.00000
     72       3.6910      2.00000
     73       3.6910      2.00000
     74       3.6910      2.00000
     75       3.6910      2.00000
     76       3.6910      2.00000
     77       3.6910      2.00000
     78       3.6910      2.00000
     79       3.6910      2.00000
     80       3.6910      2.00000
     81       3.6910      2.00000
     82       4.6523      2.00000
     83       4.6523      2.00000
     84       4.6523      2.00000
     85       4.6523      2.00000
     86       4.6523      2.00000
     87       4.6523      2.00000
     88       4.8337      2.00000
     89       4.8337      2.00000
     90       4.8337      2.00000
     91       4.8337      2.00000
     92       4.8337      2.00000
     93       4.8337      2.00000
     94       6.0810      2.00000
     95       6.0810      2.00000
     96       6.0810      2.00000
     97       6.0810      2.00000
     98       6.0810      2.00000
     99       6.0810      2.00000
    100       6.0810      2.00000
    101       6.0810      2.00000
    102       6.0810      2.00000
    103       6.0810      2.00000
    104       6.0810      2.00000
    105       6.0810      2.00000
    106       6.8232      2.00000
    107       6.8232      2.00000
    108       6.8232      2.00000
    109       6.8232      2.00000
    110       6.8232      2.00000
    111       6.8232      2.00000
    112       6.8232      2.00000
    113       6.8232      2.00000
    114       6.8232      2.00000
    115       6.8232      2.00000
    116       6.8232      2.00000
    117       6.8232      2.00000
    118       6.9507      2.00000
    119       6.9507      2.00000
    120       6.9507      2.00000
    121       6.9507      2.00000
    122       6.9507      2.00000
    123       6.9507      2.00000
    124       6.9507      2.00000
    125       6.9507      2.00000
    126       8.0087      1.86062
    127       8.0087      1.86062
    128       8.0087      1.86062
    129       9.3678     -0.00000
    130       9.3678     -0.00000
    131       9.3678     -0.00000
    132      12.0300     -0.00000
    133      12.0300     -0.00000
    134      12.0300     -0.00000
    135      12.0300     -0.00000
    136      12.0300     -0.00000
    137      12.0300     -0.00000
    138      12.2936     -0.00000
    139      12.2936     -0.00000
    140      12.2936     -0.00000
    141      13.2001     -0.00000
    142      13.2001     -0.00000
    143      13.2001     -0.00000
    144      13.2001     -0.00000
    145      13.2001     -0.00000
    146      13.2001     -0.00000
    147      13.3491     -0.00000
    148      13.3491     -0.00000
    149      13.3491     -0.00000
    150      13.3491     -0.00000
    151      13.4996     -0.00000
    152      13.4996     -0.00000
    153      13.4996     -0.00000
    154      13.4996     -0.00000
    155      13.4996     -0.00000
    156      13.4996     -0.00000
    157      13.4996     -0.00000
    158      13.4996     -0.00000
    159      13.4996     -0.00000
    160      13.4996     -0.00000
    161      13.4996     -0.00000
    162      13.4996     -0.00000
    163      14.1199      0.00000
    164      14.3034      0.00000
    165      14.3034      0.00000
    166      14.3034      0.00000
    167      14.3034      0.00000
    168      14.3034      0.00000

 k-point     2 :       0.3333    0.0000    0.0000
  band No.  band energies     occupation 
      1      -7.1505      2.00000
      2      -6.6164      2.00000
      3      -5.5801      2.00000
      4      -5.5801      2.00000
      5      -5.5801      2.00000
      6      -5.5801      2.00000
      7      -5.0958      2.00000
      8      -5.0958      2.00000
      9      -5.0958      2.00000
     10      -5.0958      2.00000
     11      -4.5780      2.00000
     12      -4.2225      2.00000
     13      -4.2225      2.00000
     14      -4.2225      2.00000
     15      -4.2225      2.00000
     16      -3.9621      2.00000
     17      -3.9621      2.00000
     18      -3.9621      2.00000
     19      -3.9621      2.00000
     20      -3.3897      2.00000
     21      -3.3897      2.00000
     22      -3.3897      2.00000
     23      -3.3897      2.00000
     24      -3.2347      2.00000
     25      -2.5128      2.00000
     26      -2.5128      2.00000
     27      -2.5128      2.00000
     28      -2.5128      2.00000
     29      -2.3071      2.00000
     30      -2.3071      2.00000
     31      -2.1945      2.00000
     32      -2.1945      2.00000
     33      -0.0157      2.00000
     34      -0.0157      2.00000
     35      -0.0157      2.00000
     36      -0.0157      2.00000
     37       0.3764      2.00000
     38       0.3764      2.00000
     39       0.7359      2.00000
     40       0.7359      2.00000
     41       1.0640      2.00000
     42       1.0640      2.00000
     43       1.0640      2.00000
     44       1.0640      2.00000
     45       1.1062      2.00000
     46       1.1062      2.00000
     47       1.1062      2.00000
     48       1.1062      2.00000
     49       1.2431      2.00000
     50       1.4054      2.00000
     51       1.4054      2.00000
     52       1.4054      2.00000
     53       1.4054      2.00000
     54       2.7196      2.00000
     55       2.7196      2.00000
     56       2.7196      2.00000
     57       2.7196      2.00000
     58       2.9495      2.00000
     59       2.9830      2.00000
     60       2.9830      2.00000
     61       2.9830      2.00000
     62       2.9830      2.00000
     63       3.0094      2.00000
     64       3.0094      2.00000
     65       3.0094      2.00000
     66       3.0094      2.00000
     67       3.5290      2.00000
     68       3.5290      2.00000
     69       3.6531      2.00000
     70       3.6531      2.00000
     71       4.0341      2.00000
     72       4.0341      2.00000
     73       4.0341      2.00000
     74       4.0341      2.00000
     75       4.3707      2.00000
     76       4.3707      2.00000
     77       4.3906      2.00000
     78       4.3906      2.00000
     79       4.4508      2.00000
     80       4.4508      2.00000
     81       4.4508      2.00000
     82       4.4508      2.00000
     83       4.6537      2.00000
     84       4.6537      2.00000
     85       4.6537      2.00000
     86       4.6537      2.00000
     87       4.8145      2.00000
     88       4.8145      2.00000
     89       4.8145      2.00000
     90       4.8145      2.00000
     91       4.9808      2.00000
     92       4.9808      2.00000
     93       5.4100      2.00000
     94       5.4100      2.00000
     95       5.6202      2.00000
     96       5.6202      2.00000
     97       5.6202      2.00000
     98       5.6202      2.00000
     99       5.8949      2.00000
    100       5.8949      2.00000
    101       5.8949      2.00000
    102       5.8949      2.00000
    103       6.2006      2.00000
    104       6.2812      2.00000
    105       6.2812      2.00000
    106       6.2812      2.00000
    107       6.2812      2.00000
    108       6.4797      2.00000
    109       6.4797      2.00000
    110       6.4797      2.00000
    111       6.4797      2.00000
    112       6.8543      2.00000
    113       6.8543      2.00000
    114       6.8543      2.00000
    115       6.8543      2.00000
    116       6.9015      2.00000
    117       6.9015      2.00000
    118       6.9078      2.00000
    119       6.9078      2.00000
    120       6.9078      2.00000
    121       6.9078      2.00000
    122       6.9191      2.00000
    123       6.9191      2.00000
    124       6.9191      2.00000
    125       6.9191      2.00000
    126       7.4557      2.00002
    127       7.6654      2.00459
    128       7.6654      2.00459
    129       9.6910     -0.00000
    130      10.2131     -0.00000
    131      10.2131     -0.00000
    132      10.6338     -0.00000
    133      11.9861     -0.00000
    134      11.9861     -0.00000
    135      12.5123     -0.00000
    136      12.6724     -0.00000
    137      12.6724     -0.00000
    138      12.6724     -0.00000
    139      12.6724     -0.00000
    140      13.0020     -0.00000
    141      13.0020     -0.00000
    142      13.0020     -0.00000
    143      13.0020     -0.00000
    144      13.0927     -0.00000
    145      13.0927     -0.00000
    146      13.1018     -0.00000
    147      13.1018     -0.00000
    148      13.1018     -0.00000
    149      13.1018     -0.00000
    150      13.1817     -0.00000
    151      13.4970     -0.00000
    152      13.6580      0.00000
    153      13.6580      0.00000
    154      13.6580      0.00000
    155      13.6580      0.00000
    156      13.6956      0.00000
    157      13.6956      0.00000
    158      13.6956      0.00000
    159      13.6956      0.00000
    160      13.9732      0.00000
    161      13.9732      0.00000
    162      13.9732      0.00000
    163      13.9732      0.00000
    164      14.4870      0.00000
    165      14.8959      0.00000
    166      14.9067      0.00000
    167      14.9074      0.00000
    168      14.9106      0.00000

 k-point     3 :       0.0000    0.3333    0.0000
  band No.  band energies     occupation 
      1      -7.1505      2.00000
      2      -6.6164      2.00000
      3      -5.5801      2.00000
      4      -5.5801      2.00000
      5      -5.5801      2.00000
      6      -5.5801      2.00000
      7      -5.0958      2.00000
      8      -5.0958      2.00000
      9      -5.0958      2.00000
     10      -5.0958      2.00000
     11      -4.5780      2.00000
     12      -4.2225      2.00000
     13      -4.2225      2.00000
     14      -4.2225      2.00000
     15      -4.2225      2.00000
     16      -3.9621      2.00000
     17      -3.9621      2.00000
     18      -3.9621      2.00000
     19      -3.9621      2.00000
     20      -3.3897      2.00000
     21      -3.3897      2.00000
     22      -3.3897      2.00000
     23      -3.3897      2.00000
     24      -3.2347      2.00000
     25      -2.5128      2.00000
     26      -2.5128      2.00000
     27      -2.5128      2.00000
     28      -2.5128      2.00000
     29      -2.3071      2.00000
     30      -2.3071      2.00000
     31      -2.1945      2.00000
     32      -2.1945      2.00000
     33      -0.0157      2.00000
     34      -0.0157      2.00000
     35      -0.0157      2.00000
     36      -0.0157      2.00000
     37       0.3764      2.00000
     38       0.3764      2.00000
     39       0.7359      2.00000
     40       0.7359      2.00000
     41       1.0640      2.00000
     42       1.0640      2.00000
     43       1.0640      2.00000
     44       1.0640      2.00000
     45       1.1062      2.00000
     46       1.1062      2.00000
     47       1.1062      2.00000
     48       1.1062      2.00000
     49       1.2431      2.00000
     50       1.4054      2.00000
     51       1.4054      2.00000
     52       1.4054      2.00000
     53       1.4054      2.00000
     54       2.7196      2.00000
     55       2.7196      2.00000
     56       2.7196      2.00000
     57       2.7196      2.00000
     58       2.9495      2.00000
     59       2.9830      2.00000
     60       2.9830      2.00000
     61       2.9830      2.00000
     62       2.9830      2.00000
     63       3.0094      2.00000
     64       3.0094      2.00000
     65       3.0094      2.00000
     66       3.0094      2.00000
     67       3.5290      2.00000
     68       3.5290      2.00000
     69       3.6531      2.00000
     70       3.6531      2.00000
     71       4.0341      2.00000
     72       4.0341      2.00000
     73       4.0341      2.00000
     74       4.0341      2.00000
     75       4.3707      2.00000
     76       4.3707      2.00000
     77       4.3906      2.00000
     78       4.3906      2.00000
     79       4.4508      2.00000
     80       4.4508      2.00000
     81       4.4508      2.00000
     82       4.4508      2.00000
     83       4.6537      2.00000
     84       4.6537      2.00000
     85       4.6537      2.00000
     86       4.6537      2.00000
     87       4.8145      2.00000
     88       4.8145      2.00000
     89       4.8145      2.00000
     90       4.8145      2.00000
     91       4.9808      2.00000
     92       4.9808      2.00000
     93       5.4100      2.00000
     94       5.4100      2.00000
     95       5.6202      2.00000
     96       5.6202      2.00000
     97       5.6202      2.00000
     98       5.6202      2.00000
     99       5.8949      2.00000
    100       5.8949      2.00000
    101       5.8949      2.00000
    102       5.8949      2.00000
    103       6.2006      2.00000
    104       6.2812      2.00000
    105       6.2812      2.00000
    106       6.2812      2.00000
    107       6.2812      2.00000
    108       6.4797      2.00000
    109       6.4797      2.00000
    110       6.4797      2.00000
    111       6.4797      2.00000
    112       6.8543      2.00000
    113       6.8543      2.00000
    114       6.8543      2.00000
    115       6.8543      2.00000
    116       6.9015      2.00000
    117       6.9015      2.00000
    118       6.9078      2.00000
    119       6.9078      2.00000
    120       6.9078      2.00000
    121       6.9078      2.00000
    122       6.9191      2.00000
    123       6.9191      2.00000
    124       6.9191      2.00000
    125       6.9191      2.00000
    126       7.4557      2.00002
    127       7.6654      2.00459
    128       7.6654      2.00459
    129       9.6910     -0.00000
    130      10.2131     -0.00000
    131      10.2131     -0.00000
    132      10.6338     -0.00000
    133      11.9861     -0.00000
    134      11.9861     -0.00000
    135      12.5123     -0.00000
    136      12.6724     -0.00000
    137      12.6724     -0.00000
    138      12.6724     -0.00000
    139      12.6724     -0.00000
    140      13.0020     -0.00000
    141      13.0020     -0.00000
    142      13.0020     -0.00000
    143      13.0020     -0.00000
    144      13.0927     -0.00000
    145      13.0927     -0.00000
    146      13.1018     -0.00000
    147      13.1018     -0.00000
    148      13.1018     -0.00000
    149      13.1018     -0.00000
    150      13.1817     -0.00000
    151      13.4970     -0.00000
    152      13.6580      0.00000
    153      13.6580      0.00000
    154      13.6580      0.00000
    155      13.6580      0.00000
    156      13.6956      0.00000
    157      13.6956      0.00000
    158      13.6956      0.00000
    159      13.6956      0.00000
    160      13.9732      0.00000
    161      13.9732      0.00000
    162      13.9732      0.00000
    163      13.9732      0.00000
    164      14.4870      0.00000
    165      14.8914      0.00000
    166      14.9067      0.00000
    167      14.9083      0.00000
    168      14.9125      0.00000

 k-point     4 :       0.3333    0.3333    0.0000
  band No.  band energies     occupation 
      1      -6.9721      2.00000
      2      -6.4423      2.00000
      3      -6.4423      2.00000
      4      -5.9271      2.00000
      5      -5.4188      2.00000
      6      -5.4188      2.00000
      7      -4.9488      2.00000
      8      -4.9488      2.00000
      9      -4.9488      2.00000
     10      -4.9488      2.00000
     11      -4.5341      2.00000
     12      -4.5341      2.00000
     13      -4.4310      2.00000
     14      -4.4310      2.00000
     15      -4.0099      2.00000
     16      -4.0099      2.00000
     17      -3.5046      2.00000
     18      -3.5046      2.00000
     19      -3.3808      2.00000
     20      -3.3808      2.00000
     21      -3.3808      2.00000
     22      -3.3808      2.00000
     23      -3.1267      2.00000
     24      -3.1267      2.00000
     25      -2.8424      2.00000
     26      -2.8424      2.00000
     27      -2.7433      2.00000
     28      -2.7270      2.00000
     29      -2.7270      2.00000
     30      -2.3188      2.00000
     31      -2.3188      2.00000
     32      -2.2929      2.00000
     33      -0.1599      2.00000
     34      -0.1599      2.00000
     35       0.5022      2.00000
     36       0.5666      2.00000
     37       0.5666      2.00000
     38       0.5666      2.00000
     39       0.5666      2.00000
     40       0.6616      2.00000
     41       0.6616      2.00000
     42       0.8033      2.00000
     43       0.8033      2.00000
     44       0.8370      2.00000
     45       0.8370      2.00000
     46       0.9862      2.00000
     47       1.2223      2.00000
     48       1.2223      2.00000
     49       1.2575      2.00000
     50       1.2575      2.00000
     51       2.0638      2.00000
     52       2.0638      2.00000
     53       2.0675      2.00000
     54       2.0675      2.00000
     55       2.0675      2.00000
     56       2.0675      2.00000
     57       2.4134      2.00000
     58       2.5840      2.00000
     59       2.5840      2.00000
     60       2.6935      2.00000
     61       2.6935      2.00000
     62       3.2401      2.00000
     63       3.2401      2.00000
     64       3.2907      2.00000
     65       3.3153      2.00000
     66       3.3153      2.00000
     67       3.5242      2.00000
     68       3.5242      2.00000
     69       3.9276      2.00000
     70       3.9276      2.00000
     71       4.0624      2.00000
     72       4.0624      2.00000
     73       4.0624      2.00000
     74       4.0624      2.00000
     75       4.1040      2.00000
     76       4.3098      2.00000
     77       4.3098      2.00000
     78       4.4861      2.00000
     79       4.4861      2.00000
     80       4.6750      2.00000
     81       4.6750      2.00000
     82       4.9043      2.00000
     83       4.9043      2.00000
     84       4.9210      2.00000
     85       4.9210      2.00000
     86       4.9311      2.00000
     87       4.9311      2.00000
     88       5.1016      2.00000
     89       5.3015      2.00000
     90       5.3015      2.00000
     91       5.4196      2.00000
     92       5.4196      2.00000
     93       5.4683      2.00000
     94       5.4683      2.00000
     95       5.5823      2.00000
     96       5.5984      2.00000
     97       5.5984      2.00000
     98       5.6031      2.00000
     99       5.6031      2.00000
    100       5.6031      2.00000
    101       5.6031      2.00000
    102       5.8407      2.00000
    103       6.0235      2.00000
    104       6.0235      2.00000
    105       6.0235      2.00000
    106       6.0235      2.00000
    107       6.2074      2.00000
    108       6.2074      2.00000
    109       6.2701      2.00000
    110       6.2701      2.00000
    111       6.4227      2.00000
    112       6.4227      2.00000
    113       6.4837      2.00000
    114       6.4837      2.00000
    115       6.5326      2.00000
    116       6.6632      2.00000
    117       6.6632      2.00000
    118       6.7009      2.00000
    119       6.7009      2.00000
    120       6.8636      2.00000
    121       6.8636      2.00000
    122       6.8636      2.00000
    123       6.8636      2.00000
    124       7.2994      2.00000
    125       7.4769      2.00004
    126       7.4769      2.00004
    127       7.6251      2.00192
    128       7.9546      2.02081
    129      10.4409     -0.00000
    130      10.4995     -0.00000
    131      10.4995     -0.00000
    132      11.3547     -0.00000
    133      11.3547     -0.00000
    134      11.6696     -0.00000
    135      11.6696     -0.00000
    136      11.8142     -0.00000
    137      12.2086     -0.00000
    138      12.2086     -0.00000
    139      12.8845     -0.00000
    140      12.8845     -0.00000
    141      12.8846     -0.00000
    142      12.8846     -0.00000
    143      13.1113     -0.00000
    144      13.1113     -0.00000
    145      13.1737     -0.00000
    146      13.1737     -0.00000
    147      13.1737     -0.00000
    148      13.1737     -0.00000
    149      13.2945     -0.00000
    150      13.2945     -0.00000
    151      13.5691     -0.00000
    152      13.5691     -0.00000
    153      13.6095      0.00000
    154      13.6095      0.00000
    155      13.7665      0.00000
    156      13.7665      0.00000
    157      13.7665      0.00000
    158      13.7665      0.00000
    159      13.9077      0.00000
    160      13.9077      0.00000
    161      13.9935      0.00000
    162      14.0856      0.00000
    163      14.0856      0.00000
    164      14.6894      0.00000
    165      14.7671      0.00000
    166      14.7671      0.00000
    167      14.9814      0.00000
    168      15.0317      0.00000

 k-point     5 :      -0.3333    0.3333    0.0000
  band No.  band energies     occupation 
      1      -6.9721      2.00000
      2      -6.4423      2.00000
      3      -6.4423      2.00000
      4      -5.9271      2.00000
      5      -5.4188      2.00000
      6      -5.4188      2.00000
      7      -4.9488      2.00000
      8      -4.9488      2.00000
      9      -4.9488      2.00000
     10      -4.9488      2.00000
     11      -4.5341      2.00000
     12      -4.5341      2.00000
     13      -4.4310      2.00000
     14      -4.4310      2.00000
     15      -4.0099      2.00000
     16      -4.0099      2.00000
     17      -3.5046      2.00000
     18      -3.5046      2.00000
     19      -3.3808      2.00000
     20      -3.3808      2.00000
     21      -3.3808      2.00000
     22      -3.3808      2.00000
     23      -3.1267      2.00000
     24      -3.1267      2.00000
     25      -2.8424      2.00000
     26      -2.8424      2.00000
     27      -2.7433      2.00000
     28      -2.7270      2.00000
     29      -2.7270      2.00000
     30      -2.3188      2.00000
     31      -2.3188      2.00000
     32      -2.2929      2.00000
     33      -0.1599      2.00000
     34      -0.1599      2.00000
     35       0.5022      2.00000
     36       0.5666      2.00000
     37       0.5666      2.00000
     38       0.5666      2.00000
     39       0.5666      2.00000
     40       0.6616      2.00000
     41       0.6616      2.00000
     42       0.8033      2.00000
     43       0.8033      2.00000
     44       0.8370      2.00000
     45       0.8370      2.00000
     46       0.9862      2.00000
     47       1.2223      2.00000
     48       1.2223      2.00000
     49       1.2575      2.00000
     50       1.2575      2.00000
     51       2.0638      2.00000
     52       2.0638      2.00000
     53       2.0675      2.00000
     54       2.0675      2.00000
     55       2.0675      2.00000
     56       2.0675      2.00000
     57       2.4134      2.00000
     58       2.5840      2.00000
     59       2.5840      2.00000
     60       2.6935      2.00000
     61       2.6935      2.00000
     62       3.2401      2.00000
     63       3.2401      2.00000
     64       3.2907      2.00000
     65       3.3153      2.00000
     66       3.3153      2.00000
     67       3.5242      2.00000
     68       3.5242      2.00000
     69       3.9276      2.00000
     70       3.9276      2.00000
     71       4.0624      2.00000
     72       4.0624      2.00000
     73       4.0624      2.00000
     74       4.0624      2.00000
     75       4.1040      2.00000
     76       4.3098      2.00000
     77       4.3098      2.00000
     78       4.4861      2.00000
     79       4.4861      2.00000
     80       4.6750      2.00000
     81       4.6750      2.00000
     82       4.9043      2.00000
     83       4.9043      2.00000
     84       4.9210      2.00000
     85       4.9210      2.00000
     86       4.9311      2.00000
     87       4.9311      2.00000
     88       5.1016      2.00000
     89       5.3015      2.00000
     90       5.3015      2.00000
     91       5.4196      2.00000
     92       5.4196      2.00000
     93       5.4683      2.00000
     94       5.4683      2.00000
     95       5.5823      2.00000
     96       5.5984      2.00000
     97       5.5984      2.00000
     98       5.6031      2.00000
     99       5.6031      2.00000
    100       5.6031      2.00000
    101       5.6031      2.00000
    102       5.8407      2.00000
    103       6.0235      2.00000
    104       6.0235      2.00000
    105       6.0235      2.00000
    106       6.0235      2.00000
    107       6.2074      2.00000
    108       6.2074      2.00000
    109       6.2701      2.00000
    110       6.2701      2.00000
    111       6.4227      2.00000
    112       6.4227      2.00000
    113       6.4837      2.00000
    114       6.4837      2.00000
    115       6.5326      2.00000
    116       6.6632      2.00000
    117       6.6632      2.00000
    118       6.7009      2.00000
    119       6.7009      2.00000
    120       6.8636      2.00000
    121       6.8636      2.00000
    122       6.8636      2.00000
    123       6.8636      2.00000
    124       7.2994      2.00000
    125       7.4769      2.00004
    126       7.4769      2.00004
    127       7.6251      2.00192
    128       7.9546      2.02081
    129      10.4409     -0.00000
    130      10.4995     -0.00000
    131      10.4995     -0.00000
    132      11.3547     -0.00000
    133      11.3547     -0.00000
    134      11.6696     -0.00000
    135      11.6696     -0.00000
    136      11.8142     -0.00000
    137      12.2086     -0.00000
    138      12.2086     -0.00000
    139      12.8845     -0.00000
    140      12.8845     -0.00000
    141      12.8846     -0.00000
    142      12.8846     -0.00000
    143      13.1113     -0.00000
    144      13.1113     -0.00000
    145      13.1737     -0.00000
    146      13.1737     -0.00000
    147      13.1737     -0.00000
    148      13.1737     -0.00000
    149      13.2945     -0.00000
    150      13.2945     -0.00000
    151      13.5691     -0.00000
    152      13.5691     -0.00000
    153      13.6095      0.00000
    154      13.6095      0.00000
    155      13.7665      0.00000
    156      13.7665      0.00000
    157      13.7665      0.00000
    158      13.7665      0.00000
    159      13.9077      0.00000
    160      13.9077      0.00000
    161      13.9935      0.00000
    162      14.0856      0.00000
    163      14.0856      0.00000
    164      14.6894      0.00000
    165      14.7671      0.00000
    166      14.7671      0.00000
    167      14.9814      0.00000
    168      15.0305      0.00000

 k-point     6 :       0.0000    0.0000    0.3333
  band No.  band energies     occupation 
      1      -7.1505      2.00000
      2      -6.6164      2.00000
      3      -5.5801      2.00000
      4      -5.5801      2.00000
      5      -5.5801      2.00000
      6      -5.5801      2.00000
      7      -5.0958      2.00000
      8      -5.0958      2.00000
      9      -5.0958      2.00000
     10      -5.0958      2.00000
     11      -4.5780      2.00000
     12      -4.2225      2.00000
     13      -4.2225      2.00000
     14      -4.2225      2.00000
     15      -4.2225      2.00000
     16      -3.9621      2.00000
     17      -3.9621      2.00000
     18      -3.9621      2.00000
     19      -3.9621      2.00000
     20      -3.3897      2.00000
     21      -3.3897      2.00000
     22      -3.3897      2.00000
     23      -3.3897      2.00000
     24      -3.2347      2.00000
     25      -2.5128      2.00000
     26      -2.5128      2.00000
     27      -2.5128      2.00000
     28      -2.5128      2.00000
     29      -2.3071      2.00000
     30      -2.3071      2.00000
     31      -2.1945      2.00000
     32      -2.1945      2.00000
     33      -0.0157      2.00000
     34      -0.0157      2.00000
     35      -0.0157      2.00000
     36      -0.0157      2.00000
     37       0.3764      2.00000
     38       0.3764      2.00000
     39       0.7359      2.00000
     40       0.7359      2.00000
     41       1.0640      2.00000
     42       1.0640      2.00000
     43       1.0640      2.00000
     44       1.0640      2.00000
     45       1.1062      2.00000
     46       1.1062      2.00000
     47       1.1062      2.00000
     48       1.1062      2.00000
     49       1.2431      2.00000
     50       1.4054      2.00000
     51       1.4054      2.00000
     52       1.4054      2.00000
     53       1.4054      2.00000
     54       2.7196      2.00000
     55       2.7196      2.00000
     56       2.7196      2.00000
     57       2.7196      2.00000
     58       2.9495      2.00000
     59       2.9830      2.00000
     60       2.9830      2.00000
     61       2.9830      2.00000
     62       2.9830      2.00000
     63       3.0094      2.00000
     64       3.0094      2.00000
     65       3.0094      2.00000
     66       3.0094      2.00000
     67       3.5290      2.00000
     68       3.5290      2.00000
     69       3.6531      2.00000
     70       3.6531      2.00000
     71       4.0341      2.00000
     72       4.0341      2.00000
     73       4.0341      2.00000
     74       4.0341      2.00000
     75       4.3707      2.00000
     76       4.3707      2.00000
     77       4.3906      2.00000
     78       4.3906      2.00000
     79       4.4508      2.00000
     80       4.4508      2.00000
     81       4.4508      2.00000
     82       4.4508      2.00000
     83       4.6537      2.00000
     84       4.6537      2.00000
     85       4.6537      2.00000
     86       4.6537      2.00000
     87       4.8145      2.00000
     88       4.8145      2.00000
     89       4.8145      2.00000
     90       4.8145      2.00000
     91       4.9808      2.00000
     92       4.9808      2.00000
     93       5.4100      2.00000
     94       5.4100      2.00000
     95       5.6202      2.00000
     96       5.6202      2.00000
     97       5.6202      2.00000
     98       5.6202      2.00000
     99       5.8949      2.00000
    100       5.8949      2.00000
    101       5.8949      2.00000
    102       5.8949      2.00000
    103       6.2006      2.00000
    104       6.2812      2.00000
    105       6.2812      2.00000
    106       6.2812      2.00000
    107       6.2812      2.00000
    108       6.4797      2.00000
    109       6.4797      2.00000
    110       6.4797      2.00000
    111       6.4797      2.00000
    112       6.8543      2.00000
    113       6.8543      2.00000
    114       6.8543      2.00000
    115       6.8543      2.00000
    116       6.9015      2.00000
    117       6.9015      2.00000
    118       6.9078      2.00000
    119       6.9078      2.00000
    120       6.9078      2.00000
    121       6.9078      2.00000
    122       6.9191      2.00000
    123       6.9191      2.00000
    124       6.9191      2.00000
    125       6.9191      2.00000
    126       7.4557      2.00002
    127       7.6654      2.00459
    128       7.6654      2.00459
    129       9.6910     -0.00000
    130      10.2131     -0.00000
    131      10.2131     -0.00000
    132      10.6338     -0.00000
    133      11.9861     -0.00000
    134      11.9861     -0.00000
    135      12.5123     -0.00000
    136      12.6724     -0.00000
    137      12.6724     -0.00000
    138      12.6724     -0.00000
    139      12.6724     -0.00000
    140      13.0020     -0.00000
    141      13.0020     -0.00000
    142      13.0020     -0.00000
    143      13.0020     -0.00000
    144      13.0927     -0.00000
    145      13.0927     -0.00000
    146      13.1018     -0.00000
    147      13.1018     -0.00000
    148      13.1018     -0.00000
    149      13.1018     -0.00000
    150      13.1817     -0.00000
    151      13.4970     -0.00000
    152      13.6580      0.00000
    153      13.6580      0.00000
    154      13.6580      0.00000
    155      13.6580      0.00000
    156      13.6956      0.00000
    157      13.6956      0.00000
    158      13.6956      0.00000
    159      13.6956      0.00000
    160      13.9732      0.00000
    161      13.9732      0.00000
    162      13.9732      0.00000
    163      13.9732      0.00000
    164      14.4870      0.00000
    165      14.8922      0.00000
    166      14.9067      0.00000
    167      14.9076      0.00000
    168      14.9163      0.00000

 k-point     7 :       0.3333    0.0000    0.3333
  band No.  band energies     occupation 
      1      -6.9721      2.00000
      2      -6.4423      2.00000
      3      -6.4423      2.00000
      4      -5.9271      2.00000
      5      -5.4188      2.00000
      6      -5.4188      2.00000
      7      -4.9488      2.00000
      8      -4.9488      2.00000
      9      -4.9488      2.00000
     10      -4.9488      2.00000
     11      -4.5341      2.00000
     12      -4.5341      2.00000
     13      -4.4310      2.00000
     14      -4.4310      2.00000
     15      -4.0099      2.00000
     16      -4.0099      2.00000
     17      -3.5046      2.00000
     18      -3.5046      2.00000
     19      -3.3808      2.00000
     20      -3.3808      2.00000
     21      -3.3808      2.00000
     22      -3.3808      2.00000
     23      -3.1267      2.00000
     24      -3.1267      2.00000
     25      -2.8424      2.00000
     26      -2.8424      2.00000
     27      -2.7433      2.00000
     28      -2.7270      2.00000
     29      -2.7270      2.00000
     30      -2.3188      2.00000
     31      -2.3188      2.00000
     32      -2.2929      2.00000
     33      -0.1599      2.00000
     34      -0.1599      2.00000
     35       0.5022      2.00000
     36       0.5666      2.00000
     37       0.5666      2.00000
     38       0.5666      2.00000
     39       0.5666      2.00000
     40       0.6616      2.00000
     41       0.6616      2.00000
     42       0.8033      2.00000
     43       0.8033      2.00000
     44       0.8370      2.00000
     45       0.8370      2.00000
     46       0.9862      2.00000
     47       1.2223      2.00000
     48       1.2223      2.00000
     49       1.2575      2.00000
     50       1.2575      2.00000
     51       2.0638      2.00000
     52       2.0638      2.00000
     53       2.0675      2.00000
     54       2.0675      2.00000
     55       2.0675      2.00000
     56       2.0675      2.00000
     57       2.4134      2.00000
     58       2.5840      2.00000
     59       2.5840      2.00000
     60       2.6935      2.00000
     61       2.6935      2.00000
     62       3.2401      2.00000
     63       3.2401      2.00000
     64       3.2907      2.00000
     65       3.3153      2.00000
     66       3.3153      2.00000
     67       3.5242      2.00000
     68       3.5242      2.00000
     69       3.9276      2.00000
     70       3.9276      2.00000
     71       4.0624      2.00000
     72       4.0624      2.00000
     73       4.0624      2.00000
     74       4.0624      2.00000
     75       4.1040      2.00000
     76       4.3098      2.00000
     77       4.3098      2.00000
     78       4.4861      2.00000
     79       4.4861      2.00000
     80       4.6750      2.00000
     81       4.6750      2.00000
     82       4.9043      2.00000
     83       4.9043      2.00000
     84       4.9210      2.00000
     85       4.9210      2.00000
     86       4.9311      2.00000
     87       4.9311      2.00000
     88       5.1016      2.00000
     89       5.3015      2.00000
     90       5.3015      2.00000
     91       5.4196      2.00000
     92       5.4196      2.00000
     93       5.4683      2.00000
     94       5.4683      2.00000
     95       5.5823      2.00000
     96       5.5984      2.00000
     97       5.5984      2.00000
     98       5.6031      2.00000
     99       5.6031      2.00000
    100       5.6031      2.00000
    101       5.6031      2.00000
    102       5.8407      2.00000
    103       6.0235      2.00000
    104       6.0235      2.00000
    105       6.0235      2.00000
    106       6.0235      2.00000
    107       6.2074      2.00000
    108       6.2074      2.00000
    109       6.2701      2.00000
    110       6.2701      2.00000
    111       6.4227      2.00000
    112       6.4227      2.00000
    113       6.4837      2.00000
    114       6.4837      2.00000
    115       6.5326      2.00000
    116       6.6632      2.00000
    117       6.6632      2.00000
    118       6.7009      2.00000
    119       6.7009      2.00000
    120       6.8636      2.00000
    121       6.8636      2.00000
    122       6.8636      2.00000
    123       6.8636      2.00000
    124       7.2994      2.00000
    125       7.4769      2.00004
    126       7.4769      2.00004
    127       7.6251      2.00192
    128       7.9546      2.02081
    129      10.4409     -0.00000
    130      10.4995     -0.00000
    131      10.4995     -0.00000
    132      11.3547     -0.00000
    133      11.3547     -0.00000
    134      11.6696     -0.00000
    135      11.6696     -0.00000
    136      11.8142     -0.00000
    137      12.2086     -0.00000
    138      12.2086     -0.00000
    139      12.8845     -0.00000
    140      12.8845     -0.00000
    141      12.8846     -0.00000
    142      12.8846     -0.00000
    143      13.1113     -0.00000
    144      13.1113     -0.00000
    145      13.1737     -0.00000
    146      13.1737     -0.00000
    147      13.1737     -0.00000
    148      13.1737     -0.00000
    149      13.2945     -0.00000
    150      13.2945     -0.00000
    151      13.5691     -0.00000
    152      13.5691     -0.00000
    153      13.6095      0.00000
    154      13.6095      0.00000
    155      13.7665      0.00000
    156      13.7665      0.00000
    157      13.7665      0.00000
    158      13.7665      0.00000
    159      13.9077      0.00000
    160      13.9077      0.00000
    161      13.9935      0.00000
    162      14.0856      0.00000
    163      14.0856      0.00000
    164      14.6894      0.00000
    165      14.7671      0.00000
    166      14.7671      0.00000
    167      14.9825      0.00000
    168      15.0278      0.00000

 k-point     8 :      -0.3333    0.0000    0.3333
  band No.  band energies     occupation 
      1      -6.9721      2.00000
      2      -6.4423      2.00000
      3      -6.4423      2.00000
      4      -5.9271      2.00000
      5      -5.4188      2.00000
      6      -5.4188      2.00000
      7      -4.9488      2.00000
      8      -4.9488      2.00000
      9      -4.9488      2.00000
     10      -4.9488      2.00000
     11      -4.5341      2.00000
     12      -4.5341      2.00000
     13      -4.4310      2.00000
     14      -4.4310      2.00000
     15      -4.0099      2.00000
     16      -4.0099      2.00000
     17      -3.5046      2.00000
     18      -3.5046      2.00000
     19      -3.3808      2.00000
     20      -3.3808      2.00000
     21      -3.3808      2.00000
     22      -3.3808      2.00000
     23      -3.1267      2.00000
     24      -3.1267      2.00000
     25      -2.8424      2.00000
     26      -2.8424      2.00000
     27      -2.7433      2.00000
     28      -2.7270      2.00000
     29      -2.7270      2.00000
     30      -2.3188      2.00000
     31      -2.3188      2.00000
     32      -2.2929      2.00000
     33      -0.1599      2.00000
     34      -0.1599      2.00000
     35       0.5022      2.00000
     36       0.5666      2.00000
     37       0.5666      2.00000
     38       0.5666      2.00000
     39       0.5666      2.00000
     40       0.6616      2.00000
     41       0.6616      2.00000
     42       0.8033      2.00000
     43       0.8033      2.00000
     44       0.8370      2.00000
     45       0.8370      2.00000
     46       0.9862      2.00000
     47       1.2223      2.00000
     48       1.2223      2.00000
     49       1.2575      2.00000
     50       1.2575      2.00000
     51       2.0638      2.00000
     52       2.0638      2.00000
     53       2.0675      2.00000
     54       2.0675      2.00000
     55       2.0675      2.00000
     56       2.0675      2.00000
     57       2.4134      2.00000
     58       2.5840      2.00000
     59       2.5840      2.00000
     60       2.6935      2.00000
     61       2.6935      2.00000
     62       3.2401      2.00000
     63       3.2401      2.00000
     64       3.2907      2.00000
     65       3.3153      2.00000
     66       3.3153      2.00000
     67       3.5242      2.00000
     68       3.5242      2.00000
     69       3.9276      2.00000
     70       3.9276      2.00000
     71       4.0624      2.00000
     72       4.0624      2.00000
     73       4.0624      2.00000
     74       4.0624      2.00000
     75       4.1040      2.00000
     76       4.3098      2.00000
     77       4.3098      2.00000
     78       4.4861      2.00000
     79       4.4861      2.00000
     80       4.6750      2.00000
     81       4.6750      2.00000
     82       4.9043      2.00000
     83       4.9043      2.00000
     84       4.9210      2.00000
     85       4.9210      2.00000
     86       4.9311      2.00000
     87       4.9311      2.00000
     88       5.1016      2.00000
     89       5.3015      2.00000
     90       5.3015      2.00000
     91       5.4196      2.00000
     92       5.4196      2.00000
     93       5.4683      2.00000
     94       5.4683      2.00000
     95       5.5823      2.00000
     96       5.5984      2.00000
     97       5.5984      2.00000
     98       5.6031      2.00000
     99       5.6031      2.00000
    100       5.6031      2.00000
    101       5.6031      2.00000
    102       5.8407      2.00000
    103       6.0235      2.00000
    104       6.0235      2.00000
    105       6.0235      2.00000
    106       6.0235      2.00000
    107       6.2074      2.00000
    108       6.2074      2.00000
    109       6.2701      2.00000
    110       6.2701      2.00000
    111       6.4227      2.00000
    112       6.4227      2.00000
    113       6.4837      2.00000
    114       6.4837      2.00000
    115       6.5326      2.00000
    116       6.6632      2.00000
    117       6.6632      2.00000
    118       6.7009      2.00000
    119       6.7009      2.00000
    120       6.8636      2.00000
    121       6.8636      2.00000
    122       6.8636      2.00000
    123       6.8636      2.00000
    124       7.2994      2.00000
    125       7.4769      2.00004
    126       7.4769      2.00004
    127       7.6251      2.00192
    128       7.9546      2.02081
    129      10.4409     -0.00000
    130      10.4995     -0.00000
    131      10.4995     -0.00000
    132      11.3547     -0.00000
    133      11.3547     -0.00000
    134      11.6696     -0.00000
    135      11.6696     -0.00000
    136      11.8142     -0.00000
    137      12.2086     -0.00000
    138      12.2086     -0.00000
    139      12.8845     -0.00000
    140      12.8845     -0.00000
    141      12.8846     -0.00000
    142      12.8846     -0.00000
    143      13.1113     -0.00000
    144      13.1113     -0.00000
    145      13.1737     -0.00000
    146      13.1737     -0.00000
    147      13.1737     -0.00000
    148      13.1737     -0.00000
    149      13.2945     -0.00000
    150      13.2945     -0.00000
    151      13.5691     -0.00000
    152      13.5691     -0.00000
    153      13.6095      0.00000
    154      13.6095      0.00000
    155      13.7665      0.00000
    156      13.7665      0.00000
    157      13.7665      0.00000
    158      13.7665      0.00000
    159      13.9077      0.00000
    160      13.9077      0.00000
    161      13.9935      0.00000
    162      14.0856      0.00000
    163      14.0856      0.00000
    164      14.6894      0.00000
    165      14.7671      0.00000
    166      14.7672      0.00000
    167      14.9858      0.00000
    168      15.0287      0.00000

 k-point     9 :       0.0000    0.3333    0.3333
  band No.  band energies     occupation 
      1      -6.9721      2.00000
      2      -6.4423      2.00000
      3      -6.4423      2.00000
      4      -5.9271      2.00000
      5      -5.4188      2.00000
      6      -5.4188      2.00000
      7      -4.9488      2.00000
      8      -4.9488      2.00000
      9      -4.9488      2.00000
     10      -4.9488      2.00000
     11      -4.5341      2.00000
     12      -4.5341      2.00000
     13      -4.4310      2.00000
     14      -4.4310      2.00000
     15      -4.0099      2.00000
     16      -4.0099      2.00000
     17      -3.5046      2.00000
     18      -3.5046      2.00000
     19      -3.3808      2.00000
     20      -3.3808      2.00000
     21      -3.3808      2.00000
     22      -3.3808      2.00000
     23      -3.1267      2.00000
     24      -3.1267      2.00000
     25      -2.8424      2.00000
     26      -2.8424      2.00000
     27      -2.7433      2.00000
     28      -2.7270      2.00000
     29      -2.7270      2.00000
     30      -2.3188      2.00000
     31      -2.3188      2.00000
     32      -2.2929      2.00000
     33      -0.1599      2.00000
     34      -0.1599      2.00000
     35       0.5022      2.00000
     36       0.5666      2.00000
     37       0.5666      2.00000
     38       0.5666      2.00000
     39       0.5666      2.00000
     40       0.6616      2.00000
     41       0.6616      2.00000
     42       0.8033      2.00000
     43       0.8033      2.00000
     44       0.8370      2.00000
     45       0.8370      2.00000
     46       0.9862      2.00000
     47       1.2223      2.00000
     48       1.2223      2.00000
     49       1.2575      2.00000
     50       1.2575      2.00000
     51       2.0638      2.00000
     52       2.0638      2.00000
     53       2.0675      2.00000
     54       2.0675      2.00000
     55       2.0675      2.00000
     56       2.0675      2.00000
     57       2.4134      2.00000
     58       2.5840      2.00000
     59       2.5840      2.00000
     60       2.6935      2.00000
     61       2.6935      2.00000
     62       3.2401      2.00000
     63       3.2401      2.00000
     64       3.2907      2.00000
     65       3.3153      2.00000
     66       3.3153      2.00000
     67       3.5242      2.00000
     68       3.5242      2.00000
     69       3.9276      2.00000
     70       3.9276      2.00000
     71       4.0624      2.00000
     72       4.0624      2.00000
     73       4.0624      2.00000
     74       4.0624      2.00000
     75       4.1040      2.00000
     76       4.3098      2.00000
     77       4.3098      2.00000
     78       4.4861      2.00000
     79       4.4861      2.00000
     80       4.6750      2.00000
     81       4.6750      2.00000
     82       4.9043      2.00000
     83       4.9043      2.00000
     84       4.9210      2.00000
     85       4.9210      2.00000
     86       4.9311      2.00000
     87       4.9311      2.00000
     88       5.1016      2.00000
     89       5.3015      2.00000
     90       5.3015      2.00000
     91       5.4196      2.00000
     92       5.4196      2.00000
     93       5.4683      2.00000
     94       5.4683      2.00000
     95       5.5823      2.00000
     96       5.5984      2.00000
     97       5.5984      2.00000
     98       5.6031      2.00000
     99       5.6031      2.00000
    100       5.6031      2.00000
    101       5.6031      2.00000
    102       5.8407      2.00000
    103       6.0235      2.00000
    104       6.0235      2.00000
    105       6.0235      2.00000
    106       6.0235      2.00000
    107       6.2074      2.00000
    108       6.2074      2.00000
    109       6.2701      2.00000
    110       6.2701      2.00000
    111       6.4227      2.00000
    112       6.4227      2.00000
    113       6.4837      2.00000
    114       6.4837      2.00000
    115       6.5326      2.00000
    116       6.6632      2.00000
    117       6.6632      2.00000
    118       6.7009      2.00000
    119       6.7009      2.00000
    120       6.8636      2.00000
    121       6.8636      2.00000
    122       6.8636      2.00000
    123       6.8636      2.00000
    124       7.2994      2.00000
    125       7.4769      2.00004
    126       7.4769      2.00004
    127       7.6251      2.00192
    128       7.9546      2.02081
    129      10.4409     -0.00000
    130      10.4995     -0.00000
    131      10.4995     -0.00000
    132      11.3547     -0.00000
    133      11.3547     -0.00000
    134      11.6696     -0.00000
    135      11.6696     -0.00000
    136      11.8142     -0.00000
    137      12.2086     -0.00000
    138      12.2086     -0.00000
    139      12.8845     -0.00000
    140      12.8845     -0.00000
    141      12.8846     -0.00000
    142      12.8846     -0.00000
    143      13.1113     -0.00000
    144      13.1113     -0.00000
    145      13.1737     -0.00000
    146      13.1737     -0.00000
    147      13.1737     -0.00000
    148      13.1737     -0.00000
    149      13.2945     -0.00000
    150      13.2945     -0.00000
    151      13.5691     -0.00000
    152      13.5691     -0.00000
    153      13.6095      0.00000
    154      13.6095      0.00000
    155      13.7665      0.00000
    156      13.7665      0.00000
    157      13.7665      0.00000
    158      13.7665      0.00000
    159      13.9077      0.00000
    160      13.9077      0.00000
    161      13.9935      0.00000
    162      14.0856      0.00000
    163      14.0856      0.00000
    164      14.6894      0.00000
    165      14.7671      0.00000
    166      14.7671      0.00000
    167      14.9892      0.00000
    168      15.0282      0.00000

 k-point    10 :       0.3333    0.3333    0.3333
  band No.  band energies     occupation 
      1      -6.7952      2.00000
      2      -6.2703      2.00000
      3      -6.2703      2.00000
      4      -6.2703      2.00000
      5      -5.7626      2.00000
      6      -5.7626      2.00000
      7      -5.7626      2.00000
      8      -5.2818      2.00000
      9      -4.2923      2.00000
     10      -4.2923      2.00000
     11      -4.2923      2.00000
     12      -3.9048      2.00000
     13      -3.9048      2.00000
     14      -3.9048      2.00000
     15      -3.9048      2.00000
     16      -3.9048      2.00000
     17      -3.9048      2.00000
     18      -3.6568      2.00000
     19      -3.6568      2.00000
     20      -3.6568      2.00000
     21      -3.0398      2.00000
     22      -3.0398      2.00000
     23      -3.0398      2.00000
     24      -2.9671      2.00000
     25      -2.9671      2.00000
     26      -2.9671      2.00000
     27      -2.8421      2.00000
     28      -2.8421      2.00000
     29      -2.8421      2.00000
     30      -2.8421      2.00000
     31      -2.8421      2.00000
     32      -2.8421      2.00000
     33       0.2734      2.00000
     34       0.2734      2.00000
     35       0.2734      2.00000
     36       0.4153      2.00000
     37       0.4153      2.00000
     38       0.4153      2.00000
     39       0.8716      2.00000
     40       0.8716      2.00000
     41       0.8716      2.00000
     42       0.8716      2.00000
     43       0.8716      2.00000
     44       0.8716      2.00000
     45       1.1725      2.00000
     46       1.1725      2.00000
     47       1.1725      2.00000
     48       1.2879      2.00000
     49       1.2879      2.00000
     50       1.2879      2.00000
     51       1.2879      2.00000
     52       1.2879      2.00000
     53       1.2879      2.00000
     54       1.8552      2.00000
     55       2.2060      2.00000
     56       2.2060      2.00000
     57       2.2060      2.00000
     58       3.1386      2.00000
     59       3.1386      2.00000
     60       3.1386      2.00000
     61       3.3099      2.00000
     62       3.3099      2.00000
     63       3.3099      2.00000
     64       3.3099      2.00000
     65       3.3099      2.00000
     66       3.3099      2.00000
     67       3.5313      2.00000
     68       3.5313      2.00000
     69       3.5313      2.00000
     70       3.6903      2.00000
     71       3.6903      2.00000
     72       3.6903      2.00000
     73       4.3910      2.00000
     74       4.3910      2.00000
     75       4.3910      2.00000
     76       4.5876      2.00000
     77       4.5876      2.00000
     78       4.5876      2.00000
     79       4.5876      2.00000
     80       4.5876      2.00000
     81       4.5876      2.00000
     82       4.8122      2.00000
     83       4.8122      2.00000
     84       4.8122      2.00000
     85       5.1322      2.00000
     86       5.1322      2.00000
     87       5.1322      2.00000
     88       5.1322      2.00000
     89       5.1322      2.00000
     90       5.1322      2.00000
     91       5.2372      2.00000
     92       5.2372      2.00000
     93       5.2372      2.00000
     94       5.2410      2.00000
     95       5.2410      2.00000
     96       5.2410      2.00000
     97       5.6368      2.00000
     98       5.6456      2.00000
     99       5.6456      2.00000
    100       5.6456      2.00000
    101       5.8083      2.00000
    102       5.8083      2.00000
    103       5.8083      2.00000
    104       5.8083      2.00000
    105       5.8083      2.00000
    106       5.8083      2.00000
    107       5.9505      2.00000
    108       5.9505      2.00000
    109       5.9505      2.00000
    110       6.2590      2.00000
    111       6.2590      2.00000
    112       6.2590      2.00000
    113       6.4558      2.00000
    114       6.4558      2.00000
    115       6.4558      2.00000
    116       7.0130      2.00000
    117       7.0130      2.00000
    118       7.0130      2.00000
    119       7.1617      2.00000
    120       7.1617      2.00000
    121       7.3284      2.00000
    122       7.3284      2.00000
    123       7.3284      2.00000
    124       7.5019      2.00008
    125       7.5019      2.00008
    126       7.5019      2.00008
    127       7.6742      2.00548
    128       7.6742      2.00548
    129      10.7276     -0.00000
    130      10.7276     -0.00000
    131      10.7276     -0.00000
    132      11.5814     -0.00000
    133      11.5814     -0.00000
    134      11.5814     -0.00000
    135      11.9163     -0.00000
    136      11.9163     -0.00000
    137      11.9163     -0.00000
    138      11.9163     -0.00000
    139      11.9163     -0.00000
    140      11.9163     -0.00000
    141      12.0723     -0.00000
    142      12.0723     -0.00000
    143      12.0723     -0.00000
    144      12.6569     -0.00000
    145      12.6569     -0.00000
    146      12.6569     -0.00000
    147      12.6569     -0.00000
    148      12.6569     -0.00000
    149      12.6569     -0.00000
    150      12.8142     -0.00000
    151      12.8142     -0.00000
    152      12.8142     -0.00000
    153      13.6028      0.00000
    154      14.0576      0.00000
    155      14.0576      0.00000
    156      14.0576      0.00000
    157      14.1752      0.00000
    158      14.1752      0.00000
    159      14.1752      0.00000
    160      14.2070      0.00000
    161      14.2070      0.00000
    162      14.2070      0.00000
    163      14.2576      0.00000
    164      14.7160      0.00000
    165      14.7160      0.00000
    166      14.7160      0.00000
    167      15.4851      0.00000
    168      15.4893      0.00000

 k-point    11 :      -0.3333    0.3333    0.3333
  band No.  band energies     occupation 
      1      -6.7952      2.00000
      2      -6.2703      2.00000
      3      -6.2703      2.00000
      4      -6.2703      2.00000
      5      -5.7626      2.00000
      6      -5.7626      2.00000
      7      -5.7626      2.00000
      8      -5.2818      2.00000
      9      -4.2923      2.00000
     10      -4.2923      2.00000
     11      -4.2923      2.00000
     12      -3.9048      2.00000
     13      -3.9048      2.00000
     14      -3.9048      2.00000
     15      -3.9048      2.00000
     16      -3.9048      2.00000
     17      -3.9048      2.00000
     18      -3.6568      2.00000
     19      -3.6568      2.00000
     20      -3.6568      2.00000
     21      -3.0398      2.00000
     22      -3.0398      2.00000
     23      -3.0398      2.00000
     24      -2.9671      2.00000
     25      -2.9671      2.00000
     26      -2.9671      2.00000
     27      -2.8421      2.00000
     28      -2.8421      2.00000
     29      -2.8421      2.00000
     30      -2.8421      2.00000
     31      -2.8421      2.00000
     32      -2.8421      2.00000
     33       0.2734      2.00000
     34       0.2734      2.00000
     35       0.2734      2.00000
     36       0.4153      2.00000
     37       0.4153      2.00000
     38       0.4153      2.00000
     39       0.8716      2.00000
     40       0.8716      2.00000
     41       0.8716      2.00000
     42       0.8716      2.00000
     43       0.8716      2.00000
     44       0.8716      2.00000
     45       1.1725      2.00000
     46       1.1725      2.00000
     47       1.1725      2.00000
     48       1.2879      2.00000
     49       1.2879      2.00000
     50       1.2879      2.00000
     51       1.2879      2.00000
     52       1.2879      2.00000
     53       1.2879      2.00000
     54       1.8552      2.00000
     55       2.2060      2.00000
     56       2.2060      2.00000
     57       2.2060      2.00000
     58       3.1386      2.00000
     59       3.1386      2.00000
     60       3.1386      2.00000
     61       3.3099      2.00000
     62       3.3099      2.00000
     63       3.3099      2.00000
     64       3.3099      2.00000
     65       3.3099      2.00000
     66       3.3099      2.00000
     67       3.5313      2.00000
     68       3.5313      2.00000
     69       3.5313      2.00000
     70       3.6903      2.00000
     71       3.6903      2.00000
     72       3.6903      2.00000
     73       4.3910      2.00000
     74       4.3910      2.00000
     75       4.3910      2.00000
     76       4.5876      2.00000
     77       4.5876      2.00000
     78       4.5876      2.00000
     79       4.5876      2.00000
     80       4.5876      2.00000
     81       4.5876      2.00000
     82       4.8122      2.00000
     83       4.8122      2.00000
     84       4.8122      2.00000
     85       5.1322      2.00000
     86       5.1322      2.00000
     87       5.1322      2.00000
     88       5.1322      2.00000
     89       5.1322      2.00000
     90       5.1322      2.00000
     91       5.2372      2.00000
     92       5.2372      2.00000
     93       5.2372      2.00000
     94       5.2410      2.00000
     95       5.2410      2.00000
     96       5.2410      2.00000
     97       5.6368      2.00000
     98       5.6456      2.00000
     99       5.6456      2.00000
    100       5.6456      2.00000
    101       5.8083      2.00000
    102       5.8083      2.00000
    103       5.8083      2.00000
    104       5.8083      2.00000
    105       5.8083      2.00000
    106       5.8083      2.00000
    107       5.9505      2.00000
    108       5.9505      2.00000
    109       5.9505      2.00000
    110       6.2590      2.00000
    111       6.2590      2.00000
    112       6.2590      2.00000
    113       6.4558      2.00000
    114       6.4558      2.00000
    115       6.4558      2.00000
    116       7.0130      2.00000
    117       7.0130      2.00000
    118       7.0130      2.00000
    119       7.1617      2.00000
    120       7.1617      2.00000
    121       7.3284      2.00000
    122       7.3284      2.00000
    123       7.3284      2.00000
    124       7.5019      2.00008
    125       7.5019      2.00008
    126       7.5019      2.00008
    127       7.6742      2.00548
    128       7.6742      2.00548
    129      10.7276     -0.00000
    130      10.7276     -0.00000
    131      10.7276     -0.00000
    132      11.5814     -0.00000
    133      11.5814     -0.00000
    134      11.5814     -0.00000
    135      11.9163     -0.00000
    136      11.9163     -0.00000
    137      11.9163     -0.00000
    138      11.9163     -0.00000
    139      11.9163     -0.00000
    140      11.9163     -0.00000
    141      12.0723     -0.00000
    142      12.0723     -0.00000
    143      12.0723     -0.00000
    144      12.6569     -0.00000
    145      12.6569     -0.00000
    146      12.6569     -0.00000
    147      12.6569     -0.00000
    148      12.6569     -0.00000
    149      12.6569     -0.00000
    150      12.8142     -0.00000
    151      12.8142     -0.00000
    152      12.8142     -0.00000
    153      13.6028      0.00000
    154      14.0576      0.00000
    155      14.0576      0.00000
    156      14.0576      0.00000
    157      14.1752      0.00000
    158      14.1752      0.00000
    159      14.1752      0.00000
    160      14.2070      0.00000
    161      14.2070      0.00000
    162      14.2070      0.00000
    163      14.2576      0.00000
    164      14.7160      0.00000
    165      14.7160      0.00000
    166      14.7160      0.00000
    167      15.4852      0.00000
    168      15.4873      0.00000

 k-point    12 :       0.0000   -0.3333    0.3333
  band No.  band energies     occupation 
      1      -6.9721      2.00000
      2      -6.4423      2.00000
      3      -6.4423      2.00000
      4      -5.9271      2.00000
      5      -5.4188      2.00000
      6      -5.4188      2.00000
      7      -4.9488      2.00000
      8      -4.9488      2.00000
      9      -4.9488      2.00000
     10      -4.9488      2.00000
     11      -4.5341      2.00000
     12      -4.5341      2.00000
     13      -4.4310      2.00000
     14      -4.4310      2.00000
     15      -4.0099      2.00000
     16      -4.0099      2.00000
     17      -3.5046      2.00000
     18      -3.5046      2.00000
     19      -3.3808      2.00000
     20      -3.3808      2.00000
     21      -3.3808      2.00000
     22      -3.3808      2.00000
     23      -3.1267      2.00000
     24      -3.1267      2.00000
     25      -2.8424      2.00000
     26      -2.8424      2.00000
     27      -2.7433      2.00000
     28      -2.7270      2.00000
     29      -2.7270      2.00000
     30      -2.3188      2.00000
     31      -2.3188      2.00000
     32      -2.2929      2.00000
     33      -0.1599      2.00000
     34      -0.1599      2.00000
     35       0.5022      2.00000
     36       0.5666      2.00000
     37       0.5666      2.00000
     38       0.5666      2.00000
     39       0.5666      2.00000
     40       0.6616      2.00000
     41       0.6616      2.00000
     42       0.8033      2.00000
     43       0.8033      2.00000
     44       0.8370      2.00000
     45       0.8370      2.00000
     46       0.9862      2.00000
     47       1.2223      2.00000
     48       1.2223      2.00000
     49       1.2575      2.00000
     50       1.2575      2.00000
     51       2.0638      2.00000
     52       2.0638      2.00000
     53       2.0675      2.00000
     54       2.0675      2.00000
     55       2.0675      2.00000
     56       2.0675      2.00000
     57       2.4134      2.00000
     58       2.5840      2.00000
     59       2.5840      2.00000
     60       2.6935      2.00000
     61       2.6935      2.00000
     62       3.2401      2.00000
     63       3.2401      2.00000
     64       3.2907      2.00000
     65       3.3153      2.00000
     66       3.3153      2.00000
     67       3.5242      2.00000
     68       3.5242      2.00000
     69       3.9276      2.00000
     70       3.9276      2.00000
     71       4.0624      2.00000
     72       4.0624      2.00000
     73       4.0624      2.00000
     74       4.0624      2.00000
     75       4.1040      2.00000
     76       4.3098      2.00000
     77       4.3098      2.00000
     78       4.4861      2.00000
     79       4.4861      2.00000
     80       4.6750      2.00000
     81       4.6750      2.00000
     82       4.9043      2.00000
     83       4.9043      2.00000
     84       4.9210      2.00000
     85       4.9210      2.00000
     86       4.9311      2.00000
     87       4.9311      2.00000
     88       5.1016      2.00000
     89       5.3015      2.00000
     90       5.3015      2.00000
     91       5.4196      2.00000
     92       5.4196      2.00000
     93       5.4683      2.00000
     94       5.4683      2.00000
     95       5.5823      2.00000
     96       5.5984      2.00000
     97       5.5984      2.00000
     98       5.6031      2.00000
     99       5.6031      2.00000
    100       5.6031      2.00000
    101       5.6031      2.00000
    102       5.8407      2.00000
    103       6.0235      2.00000
    104       6.0235      2.00000
    105       6.0235      2.00000
    106       6.0235      2.00000
    107       6.2074      2.00000
    108       6.2074      2.00000
    109       6.2701      2.00000
    110       6.2701      2.00000
    111       6.4227      2.00000
    112       6.4227      2.00000
    113       6.4837      2.00000
    114       6.4837      2.00000
    115       6.5326      2.00000
    116       6.6632      2.00000
    117       6.6632      2.00000
    118       6.7009      2.00000
    119       6.7009      2.00000
    120       6.8636      2.00000
    121       6.8636      2.00000
    122       6.8636      2.00000
    123       6.8636      2.00000
    124       7.2994      2.00000
    125       7.4769      2.00004
    126       7.4769      2.00004
    127       7.6251      2.00192
    128       7.9546      2.02081
    129      10.4409     -0.00000
    130      10.4995     -0.00000
    131      10.4995     -0.00000
    132      11.3547     -0.00000
    133      11.3547     -0.00000
    134      11.6696     -0.00000
    135      11.6696     -0.00000
    136      11.8142     -0.00000
    137      12.2086     -0.00000
    138      12.2086     -0.00000
    139      12.8845     -0.00000
    140      12.8845     -0.00000
    141      12.8846     -0.00000
    142      12.8846     -0.00000
    143      13.1113     -0.00000
    144      13.1113     -0.00000
    145      13.1737     -0.00000
    146      13.1737     -0.00000
    147      13.1737     -0.00000
    148      13.1737     -0.00000
    149      13.2945     -0.00000
    150      13.2945     -0.00000
    151      13.5691     -0.00000
    152      13.5691     -0.00000
    153      13.6095      0.00000
    154      13.6095      0.00000
    155      13.7665      0.00000
    156      13.7665      0.00000
    157      13.7665      0.00000
    158      13.7665      0.00000
    159      13.9077      0.00000
    160      13.9077      0.00000
    161      13.9935      0.00000
    162      14.0856      0.00000
    163      14.0856      0.00000
    164      14.6894      0.00000
    165      14.7671      0.00000
    166      14.7671      0.00000
    167      14.9816      0.00000
    168      15.0322      0.00000

 k-point    13 :       0.3333   -0.3333    0.3333
  band No.  band energies     occupation 
      1      -6.7952      2.00000
      2      -6.2703      2.00000
      3      -6.2703      2.00000
      4      -6.2703      2.00000
      5      -5.7626      2.00000
      6      -5.7626      2.00000
      7      -5.7626      2.00000
      8      -5.2818      2.00000
      9      -4.2923      2.00000
     10      -4.2923      2.00000
     11      -4.2923      2.00000
     12      -3.9048      2.00000
     13      -3.9048      2.00000
     14      -3.9048      2.00000
     15      -3.9048      2.00000
     16      -3.9048      2.00000
     17      -3.9048      2.00000
     18      -3.6568      2.00000
     19      -3.6568      2.00000
     20      -3.6568      2.00000
     21      -3.0398      2.00000
     22      -3.0398      2.00000
     23      -3.0398      2.00000
     24      -2.9671      2.00000
     25      -2.9671      2.00000
     26      -2.9671      2.00000
     27      -2.8421      2.00000
     28      -2.8421      2.00000
     29      -2.8421      2.00000
     30      -2.8421      2.00000
     31      -2.8421      2.00000
     32      -2.8421      2.00000
     33       0.2734      2.00000
     34       0.2734      2.00000
     35       0.2734      2.00000
     36       0.4153      2.00000
     37       0.4153      2.00000
     38       0.4153      2.00000
     39       0.8716      2.00000
     40       0.8716      2.00000
     41       0.8716      2.00000
     42       0.8716      2.00000
     43       0.8716      2.00000
     44       0.8716      2.00000
     45       1.1725      2.00000
     46       1.1725      2.00000
     47       1.1725      2.00000
     48       1.2879      2.00000
     49       1.2879      2.00000
     50       1.2879      2.00000
     51       1.2879      2.00000
     52       1.2879      2.00000
     53       1.2879      2.00000
     54       1.8552      2.00000
     55       2.2060      2.00000
     56       2.2060      2.00000
     57       2.2060      2.00000
     58       3.1386      2.00000
     59       3.1386      2.00000
     60       3.1386      2.00000
     61       3.3099      2.00000
     62       3.3099      2.00000
     63       3.3099      2.00000
     64       3.3099      2.00000
     65       3.3099      2.00000
     66       3.3099      2.00000
     67       3.5313      2.00000
     68       3.5313      2.00000
     69       3.5313      2.00000
     70       3.6903      2.00000
     71       3.6903      2.00000
     72       3.6903      2.00000
     73       4.3910      2.00000
     74       4.3910      2.00000
     75       4.3910      2.00000
     76       4.5876      2.00000
     77       4.5876      2.00000
     78       4.5876      2.00000
     79       4.5876      2.00000
     80       4.5876      2.00000
     81       4.5876      2.00000
     82       4.8122      2.00000
     83       4.8122      2.00000
     84       4.8122      2.00000
     85       5.1322      2.00000
     86       5.1322      2.00000
     87       5.1322      2.00000
     88       5.1322      2.00000
     89       5.1322      2.00000
     90       5.1322      2.00000
     91       5.2372      2.00000
     92       5.2372      2.00000
     93       5.2372      2.00000
     94       5.2410      2.00000
     95       5.2410      2.00000
     96       5.2410      2.00000
     97       5.6368      2.00000
     98       5.6456      2.00000
     99       5.6456      2.00000
    100       5.6456      2.00000
    101       5.8083      2.00000
    102       5.8083      2.00000
    103       5.8083      2.00000
    104       5.8083      2.00000
    105       5.8083      2.00000
    106       5.8083      2.00000
    107       5.9505      2.00000
    108       5.9505      2.00000
    109       5.9505      2.00000
    110       6.2590      2.00000
    111       6.2590      2.00000
    112       6.2590      2.00000
    113       6.4558      2.00000
    114       6.4558      2.00000
    115       6.4558      2.00000
    116       7.0130      2.00000
    117       7.0130      2.00000
    118       7.0130      2.00000
    119       7.1617      2.00000
    120       7.1617      2.00000
    121       7.3284      2.00000
    122       7.3284      2.00000
    123       7.3284      2.00000
    124       7.5019      2.00008
    125       7.5019      2.00008
    126       7.5019      2.00008
    127       7.6742      2.00548
    128       7.6742      2.00548
    129      10.7276     -0.00000
    130      10.7276     -0.00000
    131      10.7276     -0.00000
    132      11.5814     -0.00000
    133      11.5814     -0.00000
    134      11.5814     -0.00000
    135      11.9163     -0.00000
    136      11.9163     -0.00000
    137      11.9163     -0.00000
    138      11.9163     -0.00000
    139      11.9163     -0.00000
    140      11.9163     -0.00000
    141      12.0723     -0.00000
    142      12.0723     -0.00000
    143      12.0723     -0.00000
    144      12.6569     -0.00000
    145      12.6569     -0.00000
    146      12.6569     -0.00000
    147      12.6569     -0.00000
    148      12.6569     -0.00000
    149      12.6569     -0.00000
    150      12.8142     -0.00000
    151      12.8142     -0.00000
    152      12.8142     -0.00000
    153      13.6028      0.00000
    154      14.0576      0.00000
    155      14.0576      0.00000
    156      14.0576      0.00000
    157      14.1752      0.00000
    158      14.1752      0.00000
    159      14.1752      0.00000
    160      14.2070      0.00000
    161      14.2070      0.00000
    162      14.2070      0.00000
    163      14.2576      0.00000
    164      14.7160      0.00000
    165      14.7160      0.00000
    166      14.7160      0.00000
    167      15.4852      0.00000
    168      15.4891      0.00000

 k-point    14 :      -0.3333   -0.3333    0.3333
  band No.  band energies     occupation 
      1      -6.7952      2.00000
      2      -6.2703      2.00000
      3      -6.2703      2.00000
      4      -6.2703      2.00000
      5      -5.7626      2.00000
      6      -5.7626      2.00000
      7      -5.7626      2.00000
      8      -5.2818      2.00000
      9      -4.2923      2.00000
     10      -4.2923      2.00000
     11      -4.2923      2.00000
     12      -3.9048      2.00000
     13      -3.9048      2.00000
     14      -3.9048      2.00000
     15      -3.9048      2.00000
     16      -3.9048      2.00000
     17      -3.9048      2.00000
     18      -3.6568      2.00000
     19      -3.6568      2.00000
     20      -3.6568      2.00000
     21      -3.0398      2.00000
     22      -3.0398      2.00000
     23      -3.0398      2.00000
     24      -2.9671      2.00000
     25      -2.9671      2.00000
     26      -2.9671      2.00000
     27      -2.8421      2.00000
     28      -2.8421      2.00000
     29      -2.8421      2.00000
     30      -2.8421      2.00000
     31      -2.8421      2.00000
     32      -2.8421      2.00000
     33       0.2734      2.00000
     34       0.2734      2.00000
     35       0.2734      2.00000
     36       0.4153      2.00000
     37       0.4153      2.00000
     38       0.4153      2.00000
     39       0.8716      2.00000
     40       0.8716      2.00000
     41       0.8716      2.00000
     42       0.8716      2.00000
     43       0.8716      2.00000
     44       0.8716      2.00000
     45       1.1725      2.00000
     46       1.1725      2.00000
     47       1.1725      2.00000
     48       1.2879      2.00000
     49       1.2879      2.00000
     50       1.2879      2.00000
     51       1.2879      2.00000
     52       1.2879      2.00000
     53       1.2879      2.00000
     54       1.8552      2.00000
     55       2.2060      2.00000
     56       2.2060      2.00000
     57       2.2060      2.00000
     58       3.1386      2.00000
     59       3.1386      2.00000
     60       3.1386      2.00000
     61       3.3099      2.00000
     62       3.3099      2.00000
     63       3.3099      2.00000
     64       3.3099      2.00000
     65       3.3099      2.00000
     66       3.3099      2.00000
     67       3.5313      2.00000
     68       3.5313      2.00000
     69       3.5313      2.00000
     70       3.6903      2.00000
     71       3.6903      2.00000
     72       3.6903      2.00000
     73       4.3910      2.00000
     74       4.3910      2.00000
     75       4.3910      2.00000
     76       4.5876      2.00000
     77       4.5876      2.00000
     78       4.5876      2.00000
     79       4.5876      2.00000
     80       4.5876      2.00000
     81       4.5876      2.00000
     82       4.8122      2.00000
     83       4.8122      2.00000
     84       4.8122      2.00000
     85       5.1322      2.00000
     86       5.1322      2.00000
     87       5.1322      2.00000
     88       5.1322      2.00000
     89       5.1322      2.00000
     90       5.1322      2.00000
     91       5.2372      2.00000
     92       5.2372      2.00000
     93       5.2372      2.00000
     94       5.2410      2.00000
     95       5.2410      2.00000
     96       5.2410      2.00000
     97       5.6368      2.00000
     98       5.6456      2.00000
     99       5.6456      2.00000
    100       5.6456      2.00000
    101       5.8083      2.00000
    102       5.8083      2.00000
    103       5.8083      2.00000
    104       5.8083      2.00000
    105       5.8083      2.00000
    106       5.8083      2.00000
    107       5.9505      2.00000
    108       5.9505      2.00000
    109       5.9505      2.00000
    110       6.2590      2.00000
    111       6.2590      2.00000
    112       6.2590      2.00000
    113       6.4558      2.00000
    114       6.4558      2.00000
    115       6.4558      2.00000
    116       7.0130      2.00000
    117       7.0130      2.00000
    118       7.0130      2.00000
    119       7.1617      2.00000
    120       7.1617      2.00000
    121       7.3284      2.00000
    122       7.3284      2.00000
    123       7.3284      2.00000
    124       7.5019      2.00008
    125       7.5019      2.00008
    126       7.5019      2.00008
    127       7.6742      2.00548
    128       7.6742      2.00548
    129      10.7276     -0.00000
    130      10.7276     -0.00000
    131      10.7276     -0.00000
    132      11.5814     -0.00000
    133      11.5814     -0.00000
    134      11.5814     -0.00000
    135      11.9163     -0.00000
    136      11.9163     -0.00000
    137      11.9163     -0.00000
    138      11.9163     -0.00000
    139      11.9163     -0.00000
    140      11.9163     -0.00000
    141      12.0723     -0.00000
    142      12.0723     -0.00000
    143      12.0723     -0.00000
    144      12.6569     -0.00000
    145      12.6569     -0.00000
    146      12.6569     -0.00000
    147      12.6569     -0.00000
    148      12.6569     -0.00000
    149      12.6569     -0.00000
    150      12.8142     -0.00000
    151      12.8142     -0.00000
    152      12.8142     -0.00000
    153      13.6028      0.00000
    154      14.0576      0.00000
    155      14.0576      0.00000
    156      14.0576      0.00000
    157      14.1752      0.00000
    158      14.1752      0.00000
    159      14.1752      0.00000
    160      14.2070      0.00000
    161      14.2070      0.00000
    162      14.2070      0.00000
    163      14.2576      0.00000
    164      14.7160      0.00000
    165      14.7160      0.00000
    166      14.7160      0.00000
    167      15.4853      0.00000
    168      15.4876      0.00000


--------------------------------------------------------------------------------------------------------


 soft charge-density along one line, spin component           1
         0         1         2         3         4         5         6         7         8         9
 total charge-density along one line
 
 pseudopotential strength for first ion, spin component:           1
  9.406  12.490  -0.000  -0.000  -0.000   0.000   0.000   0.000
 12.490  16.584  -0.000  -0.000  -0.000   0.000   0.000   0.000
 -0.000  -0.000  -3.638  -0.000   0.000   7.128   0.000  -0.000
 -0.000  -0.000  -0.000  -3.638  -0.000   0.000   7.128   0.000
 -0.000  -0.000   0.000  -0.000  -3.638  -0.000   0.000   7.128
  0.000   0.000   7.128   0.000  -0.000 -16.056  -0.000   0.000
  0.000   0.000   0.000   7.128   0.000  -0.000 -16.056  -0.000
  0.000   0.000  -0.000   0.000   7.128   0.000  -0.000 -16.056
 total augmentation occupancy for first ion, spin component:           1
  6.584  -2.705  -0.000   0.000  -0.000  -0.000  -0.000  -0.000
 -2.705   1.164   0.000  -0.000   0.000   0.000   0.000   0.000
 -0.000   0.000   1.511   0.000  -0.000   0.118   0.000  -0.000
  0.000  -0.000   0.000   1.511   0.000   0.000   0.118   0.000
 -0.000   0.000  -0.000   0.000   1.511  -0.000  -0.000   0.118
 -0.000   0.000   0.118   0.000  -0.000   0.010   0.000  -0.000
 -0.000   0.000   0.000   0.118  -0.000   0.000   0.010   0.000
 -0.000   0.000  -0.000   0.000   0.118  -0.000   0.000   0.010


------------------------ aborting loop because EDIFF is reached ----------------------------------------


    CHARGE:  cpu time    0.1353: real time    0.1353
    FORLOC:  cpu time    0.0073: real time    0.0073
    FORNL :  cpu time    3.6041: real time    3.6041
    STRESS:  cpu time    4.5789: real time    4.5790
    FORCOR:  cpu time    0.0237: real time    0.0237
    FORHAR:  cpu time    0.0108: real time    0.0108
    MIXING:  cpu time    0.0015: real time    0.0015
    OFIELD:  cpu time    0.0001: real time    0.0001

  FORCE on cell =-STRESS in cart. coord.  units (eV):
  Direction    XX          YY          ZZ          XY          YZ          ZX
  --------------------------------------------------------------------------------------
  Alpha Z   354.85177   354.85177   354.85177
  Ewald   -3028.25274 -3028.25274 -3028.25274    -0.00000    -0.00000    -0.00000
  Hartree   340.88045   340.88045   340.88045     0.00000    -0.00000     0.00000
  E(xc)    -909.29259  -909.29259  -909.29259    -0.00000    -0.00000    -0.00000
  Local    -660.41195  -660.41195  -660.41195    -0.00000     0.00000    -0.00000
  n-local  1079.85476  1079.85476  1079.85476     0.00000     0.00000     0.00000
  augment  -183.49745  -183.49745  -183.49745    -0.00000    -0.00000     0.00000
  Kinetic  3005.86783  3005.86783  3005.86783    -0.00000    -0.00000    -0.00000
  Fock        0.00000     0.00000     0.00000     0.00000     0.00000     0.00000
  -------------------------------------------------------------------------------------
  Total       0.00007     0.00007     0.00007    -0.00000     0.00000    -0.00000
  in kB       0.00017     0.00017     0.00016    -0.00000     0.00000    -0.00000
  external pressure =        0.00 kB  Pullay stress =        0.00 kB


 VOLUME and BASIS-vectors are now :
 -----------------------------------------------------------------------------
  energy-cutoff  :      400.00
  volume of cell :      668.39
      direct lattice vectors                 reciprocal lattice vectors
     8.743315580  0.000000000  0.000000000     0.114373088  0.000000000  0.000000000
     0.000000000  8.743315580  0.000000000     0.000000000  0.114373088  0.000000000
     0.000000000  0.000000000  8.743315580     0.000000000  0.000000000  0.114373088

  length of vectors
     8.743315580  8.743315580  8.743315580     0.114373088  0.114373088  0.114373088


 FORCES acting on ions
    electron-ion (+dipol)            ewald-force                    non-local-force                 convergence-correction
 -----------------------------------------------------------------------------------------------
   0.120E-05 -.112E-06 -.461E-05   0.000E+00 -.109E-13 0.888E-15   0.728E-06 -.141E-06 -.113E-05   -.205E-05 0.236E-06 0.500E-05
   0.365E-05 -.177E-05 0.301E-06   0.209E-13 -.102E-13 -.622E-14   0.971E-06 -.224E-06 -.225E-06   -.425E-05 0.155E-05 0.180E-06
   0.655E-07 -.271E-05 -.436E-05   0.533E-14 -.355E-14 -.444E-15   -.195E-06 -.832E-06 -.980E-06   0.152E-06 0.299E-05 0.467E-05
   -.212E-05 0.313E-05 -.630E-05   -.799E-14 -.555E-14 0.622E-14   -.501E-06 0.594E-06 -.158E-05   0.232E-05 -.326E-05 0.690E-05
   -.213E-06 0.314E-05 0.480E-05   -.444E-15 -.107E-13 0.311E-14   -.719E-06 0.747E-06 0.109E-05   0.100E-05 -.358E-05 -.509E-05
   -.196E-06 0.381E-05 -.328E-06   -.107E-13 -.304E-13 0.111E-14   -.209E-06 0.593E-06 0.892E-08   0.294E-06 -.374E-05 0.190E-06
   -.452E-05 0.463E-05 0.390E-05   -.107E-13 -.175E-13 0.355E-14   -.932E-06 0.113E-05 0.102E-05   0.469E-05 -.517E-05 -.445E-05
   -.263E-05 0.127E-05 0.617E-05   0.187E-13 -.244E-13 -.311E-14   -.726E-06 0.538E-06 0.154E-05   0.294E-05 -.177E-05 -.669E-05
   0.563E-05 0.174E-05 -.840E-05   0.400E-14 -.799E-14 0.444E-15   0.951E-06 -.495E-07 -.204E-05   -.570E-05 -.121E-05 0.916E-05
   0.380E-05 0.127E-07 -.470E-05   0.355E-14 -.151E-13 -.533E-14   0.776E-06 0.397E-06 -.771E-06   -.408E-05 -.490E-06 0.470E-05
   -.505E-06 0.258E-05 -.405E-05   0.178E-14 -.107E-13 -.178E-14   0.166E-06 0.740E-06 -.118E-05   0.163E-06 -.287E-05 0.477E-05
   -.813E-06 -.241E-05 0.366E-06   0.133E-14 -.129E-13 0.000E+00   -.195E-06 -.825E-06 0.326E-06   0.906E-06 0.302E-05 -.783E-06
   -.657E-06 -.437E-05 0.815E-05   0.355E-14 -.142E-13 -.115E-13   0.168E-06 -.538E-06 0.213E-05   0.914E-07 0.418E-05 -.907E-05
   -.151E-05 -.236E-05 0.392E-05   -.577E-14 -.226E-13 0.444E-15   -.361E-06 -.790E-06 0.885E-06   0.155E-05 0.303E-05 -.431E-05
   -.214E-05 -.471E-05 0.499E-05   0.275E-13 -.147E-13 0.444E-15   -.761E-06 -.113E-05 0.115E-05   0.272E-05 0.527E-05 -.546E-05
   -.812E-06 -.339E-05 -.769E-06   0.266E-13 -.888E-15 -.888E-14   -.205E-06 -.512E-06 -.274E-06   0.911E-06 0.337E-05 0.103E-05
   -.396E-05 -.142E-05 -.170E-05   -.222E-14 -.111E-13 -.178E-14   -.407E-06 -.425E-06 -.268E-06   0.366E-05 0.161E-05 0.156E-05
   -.405E-05 0.107E-05 -.234E-05   0.160E-13 -.711E-14 -.977E-14   -.987E-06 -.959E-07 -.788E-07   0.454E-05 -.665E-06 0.187E-05
   0.840E-06 -.296E-05 0.101E-05   0.382E-13 -.142E-13 0.000E+00   0.154E-08 -.933E-06 0.152E-06   -.620E-06 0.346E-05 -.875E-06
   0.958E-06 0.659E-06 -.107E-04   0.604E-13 -.711E-14 -.755E-14   0.732E-06 0.287E-06 -.274E-05   -.176E-05 -.912E-06 0.118E-04
   0.293E-05 0.123E-05 0.632E-06   0.124E-13 -.107E-13 -.142E-13   0.373E-06 0.213E-06 0.218E-06   -.259E-05 -.139E-05 -.658E-06
   0.130E-06 0.350E-05 0.172E-05   0.129E-13 -.293E-13 -.129E-13   0.122E-06 0.107E-05 0.228E-06   -.160E-06 -.422E-05 -.164E-05
   0.322E-05 0.378E-05 0.694E-07   0.453E-13 -.120E-13 -.222E-14   0.104E-05 0.988E-06 -.197E-06   -.389E-05 -.433E-05 0.927E-07
   0.432E-05 0.746E-06 0.102E-04   0.231E-13 -.391E-13 -.133E-13   0.562E-06 -.112E-06 0.278E-05   -.404E-05 -.497E-06 -.115E-04
   -.299E-05 0.129E-06 -.510E-05   0.888E-15 -.799E-14 -.888E-14   -.132E-05 0.590E-06 -.125E-05   0.421E-05 -.910E-06 0.554E-05
   -.292E-05 0.577E-06 -.262E-05   0.142E-13 -.284E-13 -.711E-14   -.718E-06 -.980E-07 -.103E-05   0.331E-05 -.271E-06 0.352E-05
   -.101E-05 0.354E-05 -.707E-06   0.426E-13 -.213E-13 -.142E-13   -.134E-06 0.101E-05 0.379E-07   0.886E-06 -.396E-05 0.545E-06
   0.270E-05 -.207E-05 -.342E-05   0.178E-13 -.258E-13 -.142E-13   0.999E-07 -.137E-06 -.801E-06   -.221E-05 0.181E-05 0.363E-05
   -.143E-05 0.370E-06 0.536E-05   0.000E+00 -.213E-13 -.142E-13   0.259E-06 -.399E-06 0.128E-05   0.880E-06 0.436E-06 -.574E-05
   0.274E-06 -.511E-05 0.306E-05   0.187E-13 -.249E-13 -.533E-14   0.294E-06 -.949E-06 0.843E-06   -.488E-06 0.521E-05 -.361E-05
   0.333E-05 -.428E-05 0.570E-06   0.400E-13 -.231E-13 -.195E-13   0.626E-06 -.103E-05 0.281E-07   -.337E-05 0.468E-05 -.605E-06
   -.207E-06 0.494E-06 0.359E-05   0.355E-13 -.142E-13 -.213E-13   0.407E-06 -.959E-07 0.765E-06   -.410E-06 -.208E-06 -.371E-05
   0.461E-05 0.885E-06 0.533E-08   -.240E-13 0.178E-14 0.140E-13   0.182E-05 0.117E-05 -.451E-06   -.597E-05 -.167E-05 0.425E-06
   0.500E-05 -.668E-05 -.412E-05   0.266E-14 0.895E-14 0.142E-13   0.660E-06 -.394E-05 -.157E-05   -.558E-05 0.943E-05 0.570E-05
   0.140E-05 -.470E-05 -.583E-05   -.246E-14 0.711E-14 0.151E-13   -.172E-06 -.196E-05 -.456E-05   -.142E-05 0.608E-05 0.963E-05
   -.482E-05 0.806E-05 -.909E-06   -.210E-13 0.124E-13 0.352E-14   -.452E-05 0.533E-05 -.270E-06   0.846E-05 -.125E-04 0.142E-05
   0.279E-05 0.438E-05 0.449E-07   0.444E-13 0.231E-13 0.142E-13   0.284E-05 0.155E-05 0.463E-06   -.525E-05 -.525E-05 -.464E-06
   0.617E-05 0.562E-05 0.492E-05   -.178E-13 0.106E-13 0.711E-14   0.478E-05 0.228E-05 0.286E-05   -.100E-04 -.775E-05 -.770E-05
   -.843E-05 0.367E-05 0.126E-05   -.851E-14 0.235E-13 0.107E-13   -.445E-05 0.117E-05 0.602E-06   0.117E-04 -.441E-05 -.232E-05
   -.257E-05 -.654E-06 0.623E-05   0.343E-14 0.846E-14 0.115E-13   -.489E-06 -.241E-05 0.359E-05   0.246E-05 0.242E-05 -.884E-05
   0.483E-05 0.253E-05 -.144E-04   -.204E-13 0.160E-13 0.123E-13   0.353E-05 0.221E-05 -.704E-05   -.814E-05 -.430E-05 0.197E-04
   0.604E-05 0.347E-05 -.656E-05   -.231E-13 0.160E-13 0.124E-13   0.468E-05 0.909E-06 -.332E-05   -.101E-04 -.398E-05 0.979E-05
   0.603E-05 0.350E-05 -.857E-05   -.207E-13 0.409E-13 0.107E-13   0.284E-05 0.223E-05 -.353E-05   -.801E-05 -.543E-05 0.117E-04
   0.154E-06 -.330E-05 0.467E-05   -.211E-13 0.178E-13 0.254E-14   0.161E-05 0.111E-05 0.124E-05   -.152E-05 0.268E-05 -.543E-05
   0.392E-05 -.395E-06 0.110E-04   -.409E-13 0.142E-13 0.534E-14   0.112E-05 -.838E-06 0.456E-05   -.493E-05 0.124E-05 -.146E-04
   -.639E-07 -.916E-05 0.918E-05   -.249E-13 0.124E-13 0.533E-14   -.135E-05 -.372E-05 0.437E-05   0.971E-06 0.120E-04 -.128E-04
   -.618E-05 -.404E-05 0.837E-05   0.468E-14 0.844E-14 0.977E-14   -.317E-05 -.210E-05 0.464E-05   0.841E-05 0.568E-05 -.125E-04
   0.933E-06 -.270E-05 -.435E-05   -.162E-14 0.932E-14 0.434E-18   -.202E-05 -.327E-05 -.221E-05   0.856E-06 0.554E-05 0.598E-05
   -.212E-05 -.367E-05 0.927E-05   -.311E-13 0.133E-14 0.961E-14   -.196E-05 -.246E-05 0.306E-05   0.397E-05 0.546E-05 -.115E-04
   -.296E-05 0.211E-06 -.625E-05   0.115E-13 0.235E-14 0.444E-14   -.232E-05 0.116E-05 -.462E-05   0.510E-05 -.108E-05 0.101E-04
   -.542E-05 -.297E-05 0.259E-05   0.445E-14 0.711E-14 0.355E-14   -.206E-05 -.143E-05 0.148E-05   0.695E-05 0.422E-05 -.306E-05
   -.234E-05 0.332E-05 -.652E-05   0.264E-14 0.160E-13 0.521E-14   -.361E-05 -.709E-07 -.356E-05   0.530E-05 -.319E-05 0.928E-05
   0.550E-05 -.296E-05 -.746E-05   -.178E-14 0.711E-14 0.623E-14   0.384E-05 -.142E-05 -.252E-05   -.805E-05 0.394E-05 0.948E-05
   0.178E-05 0.843E-05 0.273E-05   0.355E-14 0.348E-14 0.888E-15   0.273E-05 0.266E-05 0.209E-05   -.356E-05 -.106E-04 -.481E-05
   0.164E-05 0.245E-05 0.677E-06   -.529E-14 0.231E-13 0.711E-14   0.121E-06 0.123E-05 0.157E-05   -.185E-05 -.337E-05 -.243E-05
   0.182E-06 -.435E-05 0.393E-05   0.773E-17 0.613E-14 0.533E-14   0.250E-05 -.266E-07 0.143E-05   -.235E-05 0.372E-05 -.515E-05
   -.306E-05 -.192E-05 -.234E-05   -.888E-15 0.306E-13 0.872E-14   0.232E-06 -.194E-05 -.521E-06   0.307E-05 0.321E-05 0.287E-05
   -.381E-05 0.464E-05 -.148E-05   -.551E-13 0.667E-14 0.355E-14   -.533E-06 0.206E-05 -.237E-06   0.430E-05 -.598E-05 0.205E-05
   -.660E-05 0.277E-05 -.559E-05   0.875E-15 0.444E-13 -.711E-14   -.294E-05 0.859E-06 -.367E-05   0.891E-05 -.336E-05 0.896E-05
   0.256E-05 -.664E-05 -.415E-05   0.179E-14 0.888E-14 -.160E-14   0.301E-05 -.494E-05 -.258E-05   -.509E-05 0.106E-04 0.599E-05
   -.334E-05 0.245E-05 0.936E-06   0.355E-14 0.000E+00 -.532E-14   -.258E-05 0.296E-05 0.542E-06   0.564E-05 -.485E-05 -.162E-05
   0.175E-05 -.669E-05 0.378E-05   -.142E-13 0.355E-14 -.355E-14   -.226E-06 -.331E-05 0.267E-05   -.112E-05 0.973E-05 -.632E-05
   0.356E-05 0.104E-05 0.106E-04   0.531E-14 0.711E-14 -.355E-14   0.141E-05 0.104E-05 0.501E-05   -.456E-05 -.184E-05 -.145E-04
   -.698E-05 0.363E-05 -.138E-05   -.175E-14 0.710E-14 -.179E-14   -.552E-05 0.377E-05 0.271E-06   0.115E-04 -.652E-05 0.859E-06
 -----------------------------------------------------------------------------------------------
   0.530E-06 -.103E-05 -.107E-05   0.206E-12 -.104E-12 -.717E-14   -.293E-06 -.567E-06 -.247E-06   -.369E-06 0.135E-05 0.981E-06
 
 
 POSITION                                       TOTAL-FORCE (eV/Angst)
 -----------------------------------------------------------------------------------
      1.09291      1.09291      1.09291        -0.000000     -0.000000     -0.000001
      1.09291      3.27874      3.27874         0.000000     -0.000000      0.000000
      3.27874      1.09291      3.27874         0.000000     -0.000001     -0.000001
      3.27874      3.27874      1.09291        -0.000000      0.000000     -0.000001
      1.09291      1.09291      5.46457         0.000000      0.000000      0.000001
      1.09291      3.27874      7.65040        -0.000000      0.000001     -0.000000
      3.27874      1.09291      7.65040        -0.000001      0.000001      0.000000
      3.27874      3.27874      5.46457        -0.000000      0.000000      0.000001
      1.09291      5.46457      1.09291         0.000001      0.000000     -0.000001
      1.09291      7.65040      3.27874         0.000001     -0.000000     -0.000001
      3.27874      5.46457      3.27874        -0.000000      0.000000     -0.000000
      3.27874      7.65040      1.09291        -0.000000     -0.000000     -0.000000
      1.09291      5.46457      5.46457        -0.000000     -0.000001      0.000001
      1.09291      7.65040      7.65040        -0.000000     -0.000000      0.000001
      3.27874      5.46457      7.65040        -0.000000     -0.000001      0.000001
      3.27874      7.65040      5.46457        -0.000000     -0.000001     -0.000000
      5.46457      1.09291      1.09291        -0.000001     -0.000000     -0.000000
      5.46457      3.27874      3.27874        -0.000000      0.000000     -0.000001
      7.65040      1.09291      3.27874         0.000000     -0.000000      0.000000
      7.65040      3.27874      1.09291        -0.000000      0.000000     -0.000002
      5.46457      1.09291      5.46457         0.000001      0.000000      0.000000
      5.46457      3.27874      7.65040         0.000000      0.000000      0.000000
      7.65040      1.09291      7.65040         0.000000      0.000000     -0.000000
      7.65040      3.27874      5.46457         0.000001      0.000000      0.000002
      5.46457      5.46457      1.09291        -0.000000     -0.000000     -0.000001
      5.46457      7.65040      3.27874        -0.000000      0.000000     -0.000000
      7.65040      5.46457      3.27874        -0.000000      0.000001     -0.000000
      7.65040      7.65040      1.09291         0.000001     -0.000000     -0.000001
      5.46457      5.46457      5.46457        -0.000000      0.000000      0.000001
      5.46457      7.65040      7.65040         0.000000     -0.000001      0.000000
      7.65040      5.46457      7.65040         0.000001     -0.000001     -0.000000
      7.65040      7.65040      5.46457        -0.000000      0.000000      0.000001
      0.00000      0.00000      0.00000         0.000000      0.000000     -0.000000
      0.00000      2.18583      2.18583         0.000000     -0.000001      0.000000
      2.18583      0.00000      2.18583        -0.000000     -0.000001     -0.000001
      2.18583      2.18583      0.00000        -0.000001      0.000001      0.000000
      0.00000      0.00000      4.37166         0.000000      0.000001      0.000000
      0.00000      2.18583      6.55749         0.000001      0.000000      0.000000
      2.18583      0.00000      6.55749        -0.000001      0.000000     -0.000000
      2.18583      2.18583      4.37166        -0.000001     -0.000001      0.000001
      0.00000      4.37166      0.00000         0.000000      0.000000     -0.000002
      0.00000      6.55749      2.18583         0.000001      0.000000     -0.000000
      2.18583      4.37166      2.18583         0.000001      0.000000     -0.000000
      2.18583      6.55749      0.00000         0.000000      0.000000      0.000000
      0.00000      4.37166      4.37166         0.000000      0.000000      0.000001
      0.00000      6.55749      6.55749        -0.000000     -0.000001      0.000001
      2.18583      4.37166      6.55749        -0.000001     -0.000000      0.000001
      2.18583      6.55749      4.37166        -0.000000     -0.000000     -0.000001
      4.37166      0.00000      0.00000        -0.000000     -0.000001      0.000001
      4.37166      2.18583      2.18583        -0.000000      0.000000     -0.000001
      6.55749      0.00000      2.18583        -0.000001     -0.000000      0.000001
      6.55749      2.18583      0.00000        -0.000001      0.000000     -0.000001
      4.37166      0.00000      4.37166         0.000001     -0.000000     -0.000000
      4.37166      2.18583      6.55749         0.000001      0.000000      0.000000
      6.55749      0.00000      6.55749        -0.000000      0.000000     -0.000000
      6.55749      2.18583      4.37166         0.000000     -0.000001      0.000000
      4.37166      4.37166      0.00000         0.000000     -0.000001      0.000000
      4.37166      6.55749      2.18583        -0.000000      0.000001      0.000000
      6.55749      4.37166      2.18583        -0.000001      0.000000     -0.000000
      6.55749      6.55749      0.00000         0.000000     -0.000001     -0.000001
      4.37166      4.37166      4.37166        -0.000000      0.000001     -0.000000
      4.37166      6.55749      6.55749         0.000000     -0.000000      0.000000
      6.55749      4.37166      6.55749         0.000000      0.000000      0.000001
      6.55749      6.55749      4.37166        -0.000001      0.000001     -0.000000
 -----------------------------------------------------------------------------------
    total drift:                               -0.000000     -0.000000     -0.000000


--------------------------------------------------------------------------------------------------------



  FREE ENERGIE OF THE ION-ELECTRON SYSTEM (eV)
  ---------------------------------------------------
  free  energy   TOTEN  =      -482.08611239 eV

  energy  without entropy=     -482.09514136  energy(sigma->0) =     -482.08912205
 


--------------------------------------------------------------------------------------------------------


    POTLOK:  cpu time    0.0219: real time    0.0219


--------------------------------------------------------------------------------------------------------


     LOOP+:  cpu time  105.9447: real time  106.0648
    4ORBIT:  cpu time    0.0000: real time    0.0000

 total amount of memory used by VASP MPI-rank0    44681. kBytes
=======================================================================

   base      :      30000. kBytes
   nonl-proj :       4392. kBytes
   fftplans  :       1021. kBytes
   grid      :       1605. kBytes
   one-center:         24. kBytes
   wavefun   :       7639. kBytes
 
  
  
 General timing and accounting informations for this job:
 ========================================================
  
                  Total CPU time used (sec):      109.963
                            User time (sec):      109.358
                          System time (sec):        0.604
                         Elapsed time (sec):      111.940
  
                   Maximum memory used (kb):      195960.
                   Average memory used (kb):           0.
  
                          Minor page faults:        16645
                          Major page faults:           84
                 Voluntary context switches:          894
